#  E (eV)   dos(E)     Int dos(E) EFermi =    1.020 eV
  -5.000  0.0000E+00  0.4800E+02
  -4.990  0.0000E+00  0.4800E+02
  -4.980  0.0000E+00  0.4800E+02
  -4.970  0.0000E+00  0.4800E+02
  -4.960  0.0000E+00  0.4800E+02
  -4.950  0.0000E+00  0.4800E+02
  -4.940  0.0000E+00  0.4800E+02
  -4.930  0.0000E+00  0.4800E+02
  -4.920  0.0000E+00  0.4800E+02
  -4.910  0.0000E+00  0.4800E+02
  -4.900  0.0000E+00  0.4800E+02
  -4.890  0.0000E+00  0.4800E+02
  -4.880  0.0000E+00  0.4800E+02
  -4.870  0.0000E+00  0.4800E+02
  -4.860  0.0000E+00  0.4800E+02
  -4.850  0.0000E+00  0.4800E+02
  -4.840  0.0000E+00  0.4800E+02
  -4.830  0.0000E+00  0.4800E+02
  -4.820  0.0000E+00  0.4800E+02
  -4.810  0.0000E+00  0.4800E+02
  -4.800  0.0000E+00  0.4800E+02
  -4.790  0.0000E+00  0.4800E+02
  -4.780  0.0000E+00  0.4800E+02
  -4.770  0.0000E+00  0.4800E+02
  -4.760  0.1616E+01  0.4800E+02
  -4.750  0.1491E+01  0.4802E+02
  -4.740  0.1412E+01  0.4804E+02
  -4.730  0.1311E+01  0.4805E+02
  -4.720  0.1185E+01  0.4806E+02
  -4.710  0.1218E+01  0.4808E+02
  -4.700  0.1148E+01  0.4809E+02
  -4.690  0.1147E+01  0.4810E+02
  -4.680  0.1084E+01  0.4811E+02
  -4.670  0.1113E+01  0.4812E+02
  -4.660  0.1091E+01  0.4813E+02
  -4.650  0.1091E+01  0.4814E+02
  -4.640  0.1047E+01  0.4815E+02
  -4.630  0.1035E+01  0.4816E+02
  -4.620  0.1049E+01  0.4817E+02
  -4.610  0.1067E+01  0.4819E+02
  -4.600  0.1027E+01  0.4820E+02
  -4.590  0.1016E+01  0.4821E+02
  -4.580  0.1004E+01  0.4822E+02
  -4.570  0.1002E+01  0.4823E+02
  -4.560  0.1014E+01  0.4824E+02
  -4.550  0.1026E+01  0.4825E+02
  -4.540  0.1020E+01  0.4826E+02
  -4.530  0.9886E+00  0.4827E+02
  -4.520  0.9874E+00  0.4828E+02
  -4.510  0.9849E+00  0.4829E+02
  -4.500  0.9835E+00  0.4830E+02
  -4.490  0.9906E+00  0.4831E+02
  -4.480  0.1002E+01  0.4832E+02
  -4.470  0.1013E+01  0.4833E+02
  -4.460  0.9898E+00  0.4834E+02
  -4.450  0.9726E+00  0.4835E+02
  -4.440  0.9772E+00  0.4836E+02
  -4.430  0.9780E+00  0.4837E+02
  -4.420  0.9773E+00  0.4838E+02
  -4.410  0.9795E+00  0.4839E+02
  -4.400  0.9887E+00  0.4840E+02
  -4.390  0.1001E+01  0.4840E+02
  -4.380  0.9938E+00  0.4841E+02
  -4.370  0.9807E+00  0.4842E+02
  -4.360  0.9717E+00  0.4843E+02
  -4.350  0.9769E+00  0.4844E+02
  -4.340  0.9765E+00  0.4845E+02
  -4.330  0.9793E+00  0.4846E+02
  -4.320  0.9823E+00  0.4847E+02
  -4.310  0.9841E+00  0.4848E+02
  -4.300  0.9945E+00  0.4849E+02
  -4.290  0.9990E+00  0.4850E+02
  -4.280  0.9867E+00  0.4851E+02
  -4.270  0.9802E+00  0.4852E+02
  -4.260  0.9771E+00  0.4853E+02
  -4.250  0.9783E+00  0.4854E+02
  -4.240  0.9843E+00  0.4855E+02
  -4.230  0.9858E+00  0.4856E+02
  -4.220  0.9895E+00  0.4857E+02
  -4.210  0.9933E+00  0.4858E+02
  -4.200  0.9989E+00  0.4859E+02
  -4.190  0.9988E+00  0.4860E+02
  -4.180  0.9949E+00  0.4861E+02
  -4.170  0.9915E+00  0.4862E+02
  -4.160  0.9901E+00  0.4863E+02
  -4.150  0.9875E+00  0.4864E+02
  -4.140  0.9891E+00  0.4865E+02
  -4.130  0.9974E+00  0.4866E+02
  -4.120  0.1001E+01  0.4867E+02
  -4.110  0.1004E+01  0.4868E+02
  -4.100  0.1007E+01  0.4869E+02
  -4.090  0.1009E+01  0.4870E+02
  -4.080  0.1009E+01  0.4871E+02
  -4.070  0.1012E+01  0.4872E+02
  -4.060  0.1007E+01  0.4873E+02
  -4.050  0.1005E+01  0.4874E+02
  -4.040  0.1005E+01  0.4875E+02
  -4.030  0.1006E+01  0.4876E+02
  -4.020  0.1011E+01  0.4877E+02
  -4.010  0.1017E+01  0.4878E+02
  -4.000  0.1021E+01  0.4879E+02
  -3.990  0.1025E+01  0.4880E+02
  -3.980  0.1028E+01  0.4881E+02
  -3.970  0.1024E+01  0.4882E+02
  -3.960  0.1028E+01  0.4883E+02
  -3.950  0.1031E+01  0.4884E+02
  -3.940  0.1028E+01  0.4885E+02
  -3.930  0.1028E+01  0.4886E+02
  -3.920  0.1029E+01  0.4887E+02
  -3.910  0.1030E+01  0.4889E+02
  -3.900  0.1034E+01  0.4890E+02
  -3.890  0.1041E+01  0.4891E+02
  -3.880  0.1045E+01  0.4892E+02
  -3.870  0.1049E+01  0.4893E+02
  -3.860  0.1049E+01  0.4894E+02
  -3.850  0.1049E+01  0.4895E+02
  -3.840  0.1051E+01  0.4896E+02
  -3.830  0.1058E+01  0.4897E+02
  -3.820  0.1056E+01  0.4898E+02
  -3.810  0.1057E+01  0.4899E+02
  -3.800  0.1059E+01  0.4900E+02
  -3.790  0.1060E+01  0.4901E+02
  -3.780  0.1062E+01  0.4902E+02
  -3.770  0.1069E+01  0.4903E+02
  -3.760  0.1076E+01  0.4904E+02
  -3.750  0.1081E+01  0.4905E+02
  -3.740  0.1081E+01  0.4906E+02
  -3.730  0.1082E+01  0.4908E+02
  -3.720  0.1082E+01  0.4909E+02
  -3.710  0.1087E+01  0.4910E+02
  -3.700  0.1094E+01  0.4911E+02
  -3.690  0.1093E+01  0.4912E+02
  -3.680  0.1095E+01  0.4913E+02
  -3.670  0.1098E+01  0.4914E+02
  -3.660  0.1100E+01  0.4915E+02
  -3.650  0.1103E+01  0.4916E+02
  -3.640  0.1113E+01  0.4917E+02
  -3.630  0.1120E+01  0.4919E+02
  -3.620  0.1124E+01  0.4920E+02
  -3.610  0.1123E+01  0.4921E+02
  -3.600  0.1125E+01  0.4922E+02
  -3.590  0.1127E+01  0.4923E+02
  -3.580  0.1135E+01  0.4924E+02
  -3.570  0.1144E+01  0.4925E+02
  -3.560  0.1145E+01  0.4926E+02
  -3.550  0.1151E+01  0.4928E+02
  -3.540  0.1157E+01  0.4929E+02
  -3.530  0.1166E+01  0.4930E+02
  -3.520  0.1184E+01  0.4931E+02
  -3.510  0.2609E+01  0.4932E+02
  -3.500  0.5700E+01  0.4936E+02
  -3.490  0.6385E+01  0.4942E+02
  -3.480  0.8286E+01  0.4949E+02
  -3.470  0.7640E+01  0.4958E+02
  -3.460  0.5502E+01  0.4964E+02
  -3.450  0.5524E+01  0.4970E+02
  -3.440  0.5220E+01  0.4975E+02
  -3.430  0.5233E+01  0.4981E+02
  -3.420  0.4900E+01  0.4986E+02
  -3.410  0.4717E+01  0.4991E+02
  -3.400  0.4615E+01  0.4995E+02
  -3.390  0.4529E+01  0.5000E+02
  -3.380  0.4629E+01  0.5004E+02
  -3.370  0.3891E+01  0.5009E+02
  -3.360  0.3840E+01  0.5013E+02
  -3.350  0.3861E+01  0.5017E+02
  -3.340  0.3880E+01  0.5020E+02
  -3.330  0.3899E+01  0.5024E+02
  -3.320  0.3888E+01  0.5028E+02
  -3.310  0.3889E+01  0.5032E+02
  -3.300  0.3894E+01  0.5036E+02
  -3.290  0.3926E+01  0.5040E+02
  -3.280  0.3960E+01  0.5044E+02
  -3.270  0.3990E+01  0.5048E+02
  -3.260  0.4016E+01  0.5052E+02
  -3.250  0.4062E+01  0.5056E+02
  -3.240  0.4123E+01  0.5060E+02
  -3.230  0.4193E+01  0.5064E+02
  -3.220  0.4244E+01  0.5068E+02
  -3.210  0.4387E+01  0.5073E+02
  -3.200  0.4519E+01  0.5077E+02
  -3.190  0.4775E+01  0.5082E+02
  -3.180  0.5732E+01  0.5087E+02
  -3.170  0.4936E+01  0.5092E+02
  -3.160  0.4541E+01  0.5097E+02
  -3.150  0.4318E+01  0.5101E+02
  -3.140  0.4184E+01  0.5105E+02
  -3.130  0.4137E+01  0.5110E+02
  -3.120  0.4015E+01  0.5114E+02
  -3.110  0.4017E+01  0.5118E+02
  -3.100  0.3946E+01  0.5122E+02
  -3.090  0.3891E+01  0.5126E+02
  -3.080  0.3870E+01  0.5129E+02
  -3.070  0.3910E+01  0.5133E+02
  -3.060  0.4086E+01  0.5137E+02
  -3.050  0.4089E+01  0.5141E+02
  -3.040  0.4644E+01  0.5146E+02
  -3.030  0.4052E+01  0.5151E+02
  -3.020  0.3780E+01  0.5154E+02
  -3.010  0.3723E+01  0.5158E+02
  -3.000  0.3720E+01  0.5162E+02
  -2.990  0.3655E+01  0.5166E+02
  -2.980  0.3574E+01  0.5169E+02
  -2.970  0.3505E+01  0.5173E+02
  -2.960  0.3432E+01  0.5176E+02
  -2.950  0.3326E+01  0.5180E+02
  -2.940  0.3283E+01  0.5183E+02
  -2.930  0.3575E+01  0.5186E+02
  -2.920  0.3577E+01  0.5190E+02
  -2.910  0.3494E+01  0.5193E+02
  -2.900  0.3383E+01  0.5197E+02
  -2.890  0.3293E+01  0.5200E+02
  -2.880  0.3238E+01  0.5204E+02
  -2.870  0.3232E+01  0.5207E+02
  -2.860  0.3211E+01  0.5210E+02
  -2.850  0.3095E+01  0.5213E+02
  -2.840  0.3058E+01  0.5216E+02
  -2.830  0.3045E+01  0.5219E+02
  -2.820  0.3026E+01  0.5222E+02
  -2.810  0.3013E+01  0.5225E+02
  -2.800  0.2975E+01  0.5228E+02
  -2.790  0.3024E+01  0.5231E+02
  -2.780  0.2895E+01  0.5234E+02
  -2.770  0.2870E+01  0.5237E+02
  -2.760  0.2853E+01  0.5240E+02
  -2.750  0.2841E+01  0.5243E+02
  -2.740  0.2818E+01  0.5246E+02
  -2.730  0.2791E+01  0.5248E+02
  -2.720  0.2793E+01  0.5251E+02
  -2.710  0.2797E+01  0.5254E+02
  -2.700  0.2798E+01  0.5257E+02
  -2.690  0.2749E+01  0.5260E+02
  -2.680  0.2754E+01  0.5262E+02
  -2.670  0.2739E+01  0.5265E+02
  -2.660  0.2787E+01  0.5268E+02
  -2.650  0.2510E+01  0.5271E+02
  -2.640  0.2614E+01  0.5274E+02
  -2.630  0.2294E+01  0.5277E+02
  -2.620  0.2292E+01  0.5279E+02
  -2.610  0.2338E+01  0.5281E+02
  -2.600  0.2339E+01  0.5284E+02
  -2.590  0.2401E+01  0.5286E+02
  -2.580  0.2476E+01  0.5289E+02
  -2.570  0.2564E+01  0.5291E+02
  -2.560  0.2582E+01  0.5294E+02
  -2.550  0.2562E+01  0.5296E+02
  -2.540  0.2570E+01  0.5300E+02
  -2.530  0.2501E+01  0.5302E+02
  -2.520  0.2487E+01  0.5305E+02
  -2.510  0.2464E+01  0.5307E+02
  -2.500  0.2452E+01  0.5310E+02
  -2.490  0.2502E+01  0.5312E+02
  -2.480  0.2518E+01  0.5315E+02
  -2.470  0.2593E+01  0.5317E+02
  -2.460  0.2622E+01  0.5320E+02
  -2.450  0.2574E+01  0.5322E+02
  -2.440  0.2577E+01  0.5325E+02
  -2.430  0.2593E+01  0.5328E+02
  -2.420  0.2536E+01  0.5330E+02
  -2.410  0.2520E+01  0.5333E+02
  -2.400  0.2515E+01  0.5335E+02
  -2.390  0.2499E+01  0.5338E+02
  -2.380  0.2488E+01  0.5340E+02
  -2.370  0.2497E+01  0.5343E+02
  -2.360  0.2500E+01  0.5345E+02
  -2.350  0.2515E+01  0.5348E+02
  -2.340  0.2529E+01  0.5350E+02
  -2.330  0.2505E+01  0.5353E+02
  -2.320  0.2524E+01  0.5355E+02
  -2.310  0.2500E+01  0.5358E+02
  -2.300  0.2475E+01  0.5360E+02
  -2.290  0.2458E+01  0.5363E+02
  -2.280  0.2449E+01  0.5365E+02
  -2.270  0.2488E+01  0.5368E+02
  -2.260  0.2523E+01  0.5370E+02
  -2.250  0.2528E+01  0.5373E+02
  -2.240  0.2385E+01  0.5375E+02
  -2.230  0.2409E+01  0.5377E+02
  -2.220  0.2412E+01  0.5380E+02
  -2.210  0.2478E+01  0.5382E+02
  -2.200  0.2500E+01  0.5385E+02
  -2.190  0.3154E+01  0.5388E+02
  -2.180  0.3288E+01  0.5391E+02
  -2.170  0.3406E+01  0.5394E+02
  -2.160  0.3478E+01  0.5398E+02
  -2.150  0.3548E+01  0.5401E+02
  -2.140  0.3614E+01  0.5405E+02
  -2.130  0.3632E+01  0.5408E+02
  -2.120  0.3708E+01  0.5412E+02
  -2.110  0.3716E+01  0.5416E+02
  -2.100  0.3768E+01  0.5419E+02
  -2.090  0.3763E+01  0.5423E+02
  -2.080  0.3863E+01  0.5427E+02
  -2.070  0.3902E+01  0.5431E+02
  -2.060  0.3923E+01  0.5435E+02
  -2.050  0.3853E+01  0.5439E+02
  -2.040  0.4024E+01  0.5442E+02
  -2.030  0.3779E+01  0.5446E+02
  -2.020  0.3920E+01  0.5450E+02
  -2.010  0.4127E+01  0.5454E+02
  -2.000  0.4410E+01  0.5458E+02
  -1.990  0.4556E+01  0.5463E+02
  -1.980  0.4466E+01  0.5468E+02
  -1.970  0.4658E+01  0.5472E+02
  -1.960  0.4679E+01  0.5477E+02
  -1.950  0.4612E+01  0.5482E+02
  -1.940  0.4564E+01  0.5486E+02
  -1.930  0.4611E+01  0.5491E+02
  -1.920  0.4539E+01  0.5495E+02
  -1.910  0.4413E+01  0.5500E+02
  -1.900  0.4440E+01  0.5504E+02
  -1.890  0.4485E+01  0.5509E+02
  -1.880  0.4513E+01  0.5513E+02
  -1.870  0.4518E+01  0.5518E+02
  -1.860  0.4763E+01  0.5523E+02
  -1.850  0.4965E+01  0.5528E+02
  -1.840  0.4556E+01  0.5533E+02
  -1.830  0.4429E+01  0.5537E+02
  -1.820  0.4132E+01  0.5542E+02
  -1.810  0.5649E+01  0.5547E+02
  -1.800  0.5162E+01  0.5552E+02
  -1.790  0.4684E+01  0.5557E+02
  -1.780  0.4571E+01  0.5562E+02
  -1.770  0.4397E+01  0.5566E+02
  -1.760  0.4454E+01  0.5571E+02
  -1.750  0.4465E+01  0.5575E+02
  -1.740  0.4507E+01  0.5580E+02
  -1.730  0.4406E+01  0.5584E+02
  -1.720  0.4256E+01  0.5589E+02
  -1.710  0.4297E+01  0.5593E+02
  -1.700  0.4347E+01  0.5597E+02
  -1.690  0.4453E+01  0.5602E+02
  -1.680  0.4465E+01  0.5606E+02
  -1.670  0.4602E+01  0.5611E+02
  -1.660  0.4380E+01  0.5615E+02
  -1.650  0.4222E+01  0.5620E+02
  -1.640  0.4101E+01  0.5624E+02
  -1.630  0.4102E+01  0.5628E+02
  -1.620  0.3873E+01  0.5632E+02
  -1.610  0.3799E+01  0.5636E+02
  -1.600  0.3759E+01  0.5640E+02
  -1.590  0.3764E+01  0.5643E+02
  -1.580  0.3658E+01  0.5647E+02
  -1.570  0.3620E+01  0.5651E+02
  -1.560  0.3569E+01  0.5654E+02
  -1.550  0.3457E+01  0.5658E+02
  -1.540  0.3517E+01  0.5662E+02
  -1.530  0.2209E+01  0.5665E+02
  -1.520  0.2174E+01  0.5667E+02
  -1.510  0.2158E+01  0.5669E+02
  -1.500  0.2143E+01  0.5671E+02
  -1.490  0.2127E+01  0.5673E+02
  -1.480  0.2113E+01  0.5676E+02
  -1.470  0.2064E+01  0.5678E+02
  -1.460  0.2057E+01  0.5680E+02
  -1.450  0.2029E+01  0.5682E+02
  -1.440  0.2010E+01  0.5684E+02
  -1.430  0.1995E+01  0.5686E+02
  -1.420  0.1978E+01  0.5688E+02
  -1.410  0.1970E+01  0.5690E+02
  -1.400  0.1962E+01  0.5692E+02
  -1.390  0.1960E+01  0.5694E+02
  -1.380  0.1971E+01  0.5696E+02
  -1.370  0.1980E+01  0.5698E+02
  -1.360  0.1966E+01  0.5700E+02
  -1.350  0.1953E+01  0.5702E+02
  -1.340  0.2204E+01  0.5704E+02
  -1.330  0.2244E+01  0.5706E+02
  -1.320  0.2152E+01  0.5708E+02
  -1.310  0.2092E+01  0.5711E+02
  -1.300  0.2018E+01  0.5713E+02
  -1.290  0.2093E+01  0.5715E+02
  -1.280  0.2267E+01  0.5717E+02
  -1.270  0.2368E+01  0.5719E+02
  -1.260  0.2326E+01  0.5722E+02
  -1.250  0.2266E+01  0.5724E+02
  -1.240  0.2782E+01  0.5726E+02
  -1.230  0.2723E+01  0.5729E+02
  -1.220  0.2588E+01  0.5732E+02
  -1.210  0.2337E+01  0.5734E+02
  -1.200  0.2365E+01  0.5737E+02
  -1.190  0.2381E+01  0.5739E+02
  -1.180  0.2446E+01  0.5741E+02
  -1.170  0.2519E+01  0.5744E+02
  -1.160  0.2628E+01  0.5746E+02
  -1.150  0.2519E+01  0.5749E+02
  -1.140  0.2552E+01  0.5752E+02
  -1.130  0.2664E+01  0.5754E+02
  -1.120  0.2689E+01  0.5757E+02
  -1.110  0.2845E+01  0.5760E+02
  -1.100  0.2993E+01  0.5763E+02
  -1.090  0.3114E+01  0.5766E+02
  -1.080  0.3136E+01  0.5769E+02
  -1.070  0.3467E+01  0.5772E+02
  -1.060  0.3710E+01  0.5776E+02
  -1.050  0.5720E+01  0.5780E+02
  -1.040  0.6071E+01  0.5785E+02
  -1.030  0.4450E+01  0.5791E+02
  -1.020  0.3751E+01  0.5795E+02
  -1.010  0.3509E+01  0.5799E+02
  -1.000  0.4413E+01  0.5803E+02
  -0.990  0.4459E+01  0.5807E+02
  -0.980  0.4558E+01  0.5812E+02
  -0.970  0.2138E+01  0.5816E+02
  -0.960  0.2086E+01  0.5818E+02
  -0.950  0.2049E+01  0.5820E+02
  -0.940  0.2021E+01  0.5822E+02
  -0.930  0.1997E+01  0.5824E+02
  -0.920  0.1975E+01  0.5826E+02
  -0.910  0.1971E+01  0.5828E+02
  -0.900  0.1961E+01  0.5830E+02
  -0.890  0.1960E+01  0.5832E+02
  -0.880  0.1981E+01  0.5834E+02
  -0.870  0.2027E+01  0.5836E+02
  -0.860  0.2054E+01  0.5838E+02
  -0.850  0.2078E+01  0.5840E+02
  -0.840  0.2080E+01  0.5842E+02
  -0.830  0.2088E+01  0.5844E+02
  -0.820  0.2103E+01  0.5846E+02
  -0.810  0.2114E+01  0.5848E+02
  -0.800  0.2089E+01  0.5851E+02
  -0.790  0.2012E+01  0.5853E+02
  -0.780  0.1946E+01  0.5855E+02
  -0.770  0.1885E+01  0.5857E+02
  -0.760  0.1887E+01  0.5858E+02
  -0.750  0.1888E+01  0.5860E+02
  -0.740  0.1890E+01  0.5862E+02
  -0.730  0.1908E+01  0.5864E+02
  -0.720  0.1954E+01  0.5866E+02
  -0.710  0.2057E+01  0.5868E+02
  -0.700  0.2158E+01  0.5870E+02
  -0.690  0.2203E+01  0.5872E+02
  -0.680  0.2339E+01  0.5875E+02
  -0.670  0.2404E+01  0.5877E+02
  -0.660  0.2537E+01  0.5880E+02
  -0.650  0.2621E+01  0.5882E+02
  -0.640  0.2573E+01  0.5885E+02
  -0.630  0.2605E+01  0.5887E+02
  -0.620  0.2775E+01  0.5890E+02
  -0.610  0.2850E+01  0.5893E+02
  -0.600  0.2388E+01  0.5895E+02
  -0.590  0.2289E+01  0.5898E+02
  -0.580  0.2237E+01  0.5900E+02
  -0.570  0.2609E+01  0.5903E+02
  -0.560  0.2308E+01  0.5905E+02
  -0.550  0.2256E+01  0.5907E+02
  -0.540  0.2245E+01  0.5910E+02
  -0.530  0.2265E+01  0.5912E+02
  -0.520  0.2278E+01  0.5914E+02
  -0.510  0.2322E+01  0.5917E+02
  -0.500  0.2368E+01  0.5919E+02
  -0.490  0.2426E+01  0.5921E+02
  -0.480  0.2510E+01  0.5924E+02
  -0.470  0.2541E+01  0.5926E+02
  -0.460  0.2526E+01  0.5929E+02
  -0.450  0.2529E+01  0.5931E+02
  -0.440  0.2679E+01  0.5934E+02
  -0.430  0.2621E+01  0.5937E+02
  -0.420  0.2677E+01  0.5939E+02
  -0.410  0.2916E+01  0.5942E+02
  -0.400  0.3126E+01  0.5945E+02
  -0.390  0.3269E+01  0.5948E+02
  -0.380  0.3016E+01  0.5951E+02
  -0.370  0.2814E+01  0.5955E+02
  -0.360  0.2779E+01  0.5957E+02
  -0.350  0.2866E+01  0.5960E+02
  -0.340  0.2894E+01  0.5963E+02
  -0.330  0.3179E+01  0.5966E+02
  -0.320  0.3470E+01  0.5970E+02
  -0.310  0.2365E+01  0.5973E+02
  -0.300  0.1487E+01  0.5975E+02
  -0.290  0.1491E+01  0.5976E+02
  -0.280  0.1446E+01  0.5978E+02
  -0.270  0.1325E+01  0.5979E+02
  -0.260  0.1314E+01  0.5980E+02
  -0.250  0.1244E+01  0.5981E+02
  -0.240  0.1353E+01  0.5983E+02
  -0.230  0.1151E+01  0.5984E+02
  -0.220  0.1248E+01  0.5985E+02
  -0.210  0.8365E+00  0.5986E+02
  -0.200  0.8050E+00  0.5987E+02
  -0.190  0.7845E+00  0.5988E+02
  -0.180  0.6534E+00  0.5989E+02
  -0.170  0.6428E+00  0.5989E+02
  -0.160  0.6955E+00  0.5990E+02
  -0.150  0.5500E+00  0.5990E+02
  -0.140  0.5255E+00  0.5991E+02
  -0.130  0.5011E+00  0.5992E+02
  -0.120  0.4864E+00  0.5992E+02
  -0.110  0.4808E+00  0.5993E+02
  -0.100  0.4807E+00  0.5993E+02
  -0.090  0.4345E+00  0.5993E+02
  -0.080  0.3906E+00  0.5994E+02
  -0.070  0.3723E+00  0.5994E+02
  -0.060  0.3584E+00  0.5995E+02
  -0.050  0.3435E+00  0.5995E+02
  -0.040  0.3316E+00  0.5995E+02
  -0.030  0.3439E+00  0.5996E+02
  -0.020  0.3589E+00  0.5996E+02
  -0.010  0.3196E+00  0.5996E+02
   0.000  0.3056E+00  0.5997E+02
   0.010  0.2943E+00  0.5997E+02
   0.020  0.2888E+00  0.5997E+02
   0.030  0.2691E+00  0.5998E+02
   0.040  0.2495E+00  0.5998E+02
   0.050  0.2559E+00  0.5998E+02
   0.060  0.2584E+00  0.5998E+02
   0.070  0.2464E+00  0.5999E+02
   0.080  0.2344E+00  0.5999E+02
   0.090  0.2600E+00  0.5999E+02
   0.100  0.2566E+00  0.5999E+02
   0.110  0.2153E+00  0.6000E+02
   0.120  0.2280E+00  0.6000E+02
   0.130  0.1657E+00  0.6000E+02
   0.140  0.0000E+00  0.6000E+02
   0.150  0.0000E+00  0.6000E+02
   0.160  0.0000E+00  0.6000E+02
   0.170  0.0000E+00  0.6000E+02
   0.180  0.0000E+00  0.6000E+02
   0.190  0.0000E+00  0.6000E+02
   0.200  0.0000E+00  0.6000E+02
   0.210  0.0000E+00  0.6000E+02
   0.220  0.0000E+00  0.6000E+02
   0.230  0.0000E+00  0.6000E+02
   0.240  0.0000E+00  0.6000E+02
   0.250  0.0000E+00  0.6000E+02
   0.260  0.0000E+00  0.6000E+02
   0.270  0.0000E+00  0.6000E+02
   0.280  0.0000E+00  0.6000E+02
   0.290  0.0000E+00  0.6000E+02
   0.300  0.0000E+00  0.6000E+02
   0.310  0.0000E+00  0.6000E+02
   0.320  0.0000E+00  0.6000E+02
   0.330  0.0000E+00  0.6000E+02
   0.340  0.0000E+00  0.6000E+02
   0.350  0.0000E+00  0.6000E+02
   0.360  0.0000E+00  0.6000E+02
   0.370  0.0000E+00  0.6000E+02
   0.380  0.0000E+00  0.6000E+02
   0.390  0.0000E+00  0.6000E+02
   0.400  0.0000E+00  0.6000E+02
   0.410  0.0000E+00  0.6000E+02
   0.420  0.0000E+00  0.6000E+02
   0.430  0.0000E+00  0.6000E+02
   0.440  0.0000E+00  0.6000E+02
   0.450  0.0000E+00  0.6000E+02
   0.460  0.0000E+00  0.6000E+02
   0.470  0.0000E+00  0.6000E+02
   0.480  0.0000E+00  0.6000E+02
   0.490  0.0000E+00  0.6000E+02
   0.500  0.0000E+00  0.6000E+02
   0.510  0.0000E+00  0.6000E+02
   0.520  0.0000E+00  0.6000E+02
   0.530  0.0000E+00  0.6000E+02
   0.540  0.0000E+00  0.6000E+02
   0.550  0.0000E+00  0.6000E+02
   0.560  0.0000E+00  0.6000E+02
   0.570  0.0000E+00  0.6000E+02
   0.580  0.0000E+00  0.6000E+02
   0.590  0.0000E+00  0.6000E+02
   0.600  0.0000E+00  0.6000E+02
   0.610  0.0000E+00  0.6000E+02
   0.620  0.0000E+00  0.6000E+02
   0.630  0.0000E+00  0.6000E+02
   0.640  0.0000E+00  0.6000E+02
   0.650  0.0000E+00  0.6000E+02
   0.660  0.0000E+00  0.6000E+02
   0.670  0.0000E+00  0.6000E+02
   0.680  0.0000E+00  0.6000E+02
   0.690  0.0000E+00  0.6000E+02
   0.700  0.0000E+00  0.6000E+02
   0.710  0.0000E+00  0.6000E+02
   0.720  0.0000E+00  0.6000E+02
   0.730  0.0000E+00  0.6000E+02
   0.740  0.0000E+00  0.6000E+02
   0.750  0.0000E+00  0.6000E+02
   0.760  0.0000E+00  0.6000E+02
   0.770  0.0000E+00  0.6000E+02
   0.780  0.0000E+00  0.6000E+02
   0.790  0.0000E+00  0.6000E+02
   0.800  0.0000E+00  0.6000E+02
   0.810  0.0000E+00  0.6000E+02
   0.820  0.0000E+00  0.6000E+02
   0.830  0.0000E+00  0.6000E+02
   0.840  0.0000E+00  0.6000E+02
   0.850  0.0000E+00  0.6000E+02
   0.860  0.0000E+00  0.6000E+02
   0.870  0.0000E+00  0.6000E+02
   0.880  0.0000E+00  0.6000E+02
   0.890  0.0000E+00  0.6000E+02
   0.900  0.0000E+00  0.6000E+02
   0.910  0.0000E+00  0.6000E+02
   0.920  0.0000E+00  0.6000E+02
   0.930  0.0000E+00  0.6000E+02
   0.940  0.0000E+00  0.6000E+02
   0.950  0.0000E+00  0.6000E+02
   0.960  0.0000E+00  0.6000E+02
   0.970  0.0000E+00  0.6000E+02
   0.980  0.0000E+00  0.6000E+02
   0.990  0.0000E+00  0.6000E+02
   1.000  0.0000E+00  0.6000E+02
   1.010  0.0000E+00  0.6000E+02
   1.020  0.0000E+00  0.6000E+02
   1.030  0.2897E+00  0.6000E+02
   1.040  0.7692E+00  0.6001E+02
   1.050  0.1403E+01  0.6002E+02
   1.060  0.2248E+01  0.6004E+02
   1.070  0.2078E+01  0.6006E+02
   1.080  0.2129E+01  0.6008E+02
   1.090  0.2063E+01  0.6010E+02
   1.100  0.2092E+01  0.6012E+02
   1.110  0.2125E+01  0.6014E+02
   1.120  0.1993E+01  0.6017E+02
   1.130  0.2005E+01  0.6019E+02
   1.140  0.1835E+01  0.6021E+02
   1.150  0.2027E+01  0.6023E+02
   1.160  0.2079E+01  0.6025E+02
   1.170  0.2103E+01  0.6027E+02
   1.180  0.2219E+01  0.6029E+02
   1.190  0.2363E+01  0.6031E+02
   1.200  0.2361E+01  0.6034E+02
   1.210  0.2360E+01  0.6036E+02
   1.220  0.2781E+01  0.6039E+02
   1.230  0.2719E+01  0.6042E+02
   1.240  0.3137E+01  0.6044E+02
   1.250  0.3743E+01  0.6048E+02
   1.260  0.3528E+01  0.6052E+02
   1.270  0.3238E+01  0.6055E+02
   1.280  0.3162E+01  0.6058E+02
   1.290  0.3114E+01  0.6061E+02
   1.300  0.2873E+01  0.6064E+02
   1.310  0.2695E+01  0.6067E+02
   1.320  0.2648E+01  0.6070E+02
   1.330  0.2586E+01  0.6073E+02
   1.340  0.3056E+01  0.6075E+02
   1.350  0.2947E+01  0.6078E+02
   1.360  0.2955E+01  0.6081E+02
   1.370  0.3327E+01  0.6084E+02
   1.380  0.3325E+01  0.6088E+02
   1.390  0.3169E+01  0.6091E+02
   1.400  0.3030E+01  0.6094E+02
   1.410  0.2954E+01  0.6097E+02
   1.420  0.3062E+01  0.6100E+02
   1.430  0.3142E+01  0.6103E+02
   1.440  0.2998E+01  0.6106E+02
   1.450  0.3202E+01  0.6109E+02
   1.460  0.3576E+01  0.6113E+02
   1.470  0.5278E+01  0.6119E+02
   1.480  0.5104E+01  0.6124E+02
   1.490  0.7245E+01  0.6130E+02
   1.500  0.9589E+01  0.6139E+02
   1.510  0.9677E+01  0.6148E+02
   1.520  0.7283E+01  0.6158E+02
   1.530  0.7927E+01  0.6166E+02
   1.540  0.7186E+01  0.6173E+02
   1.550  0.5969E+01  0.6180E+02
   1.560  0.5444E+01  0.6186E+02
   1.570  0.4860E+01  0.6191E+02
   1.580  0.4527E+01  0.6196E+02
   1.590  0.3158E+01  0.6200E+02
   1.600  0.2852E+01  0.6203E+02
   1.610  0.2389E+01  0.6205E+02
   1.620  0.2162E+01  0.6208E+02
   1.630  0.2055E+01  0.6210E+02
   1.640  0.1976E+01  0.6212E+02
   1.650  0.1926E+01  0.6214E+02
   1.660  0.1880E+01  0.6216E+02
   1.670  0.1881E+01  0.6218E+02
   1.680  0.1739E+01  0.6220E+02
   1.690  0.1772E+01  0.6221E+02
   1.700  0.1807E+01  0.6223E+02
   1.710  0.1843E+01  0.6225E+02
   1.720  0.2031E+01  0.6227E+02
   1.730  0.1954E+01  0.6229E+02
   1.740  0.1993E+01  0.6231E+02
   1.750  0.2762E+01  0.6233E+02
   1.760  0.2848E+01  0.6236E+02
   1.770  0.3094E+01  0.6239E+02
   1.780  0.3895E+01  0.6242E+02
   1.790  0.3874E+01  0.6246E+02
   1.800  0.3907E+01  0.6250E+02
   1.810  0.3920E+01  0.6254E+02
   1.820  0.3723E+01  0.6258E+02
   1.830  0.3681E+01  0.6262E+02
   1.840  0.3555E+01  0.6265E+02
   1.850  0.3442E+01  0.6269E+02
   1.860  0.3370E+01  0.6272E+02
   1.870  0.3262E+01  0.6276E+02
   1.880  0.3405E+01  0.6279E+02
   1.890  0.3433E+01  0.6282E+02
   1.900  0.3511E+01  0.6286E+02
   1.910  0.3657E+01  0.6289E+02
   1.920  0.3732E+01  0.6293E+02
   1.930  0.3929E+01  0.6297E+02
   1.940  0.3676E+01  0.6301E+02
   1.950  0.3509E+01  0.6304E+02
   1.960  0.3331E+01  0.6308E+02
   1.970  0.3279E+01  0.6311E+02
   1.980  0.3255E+01  0.6314E+02
   1.990  0.3265E+01  0.6318E+02
   2.000  0.3194E+01  0.6321E+02
   2.010  0.3114E+01  0.6324E+02
   2.020  0.3092E+01  0.6327E+02
   2.030  0.3064E+01  0.6330E+02
   2.040  0.3021E+01  0.6333E+02
   2.050  0.2977E+01  0.6336E+02
   2.060  0.2954E+01  0.6339E+02
   2.070  0.2931E+01  0.6342E+02
   2.080  0.2912E+01  0.6345E+02
   2.090  0.2905E+01  0.6348E+02
   2.100  0.2877E+01  0.6351E+02
   2.110  0.2851E+01  0.6354E+02
   2.120  0.2830E+01  0.6356E+02
   2.130  0.2829E+01  0.6359E+02
   2.140  0.2931E+01  0.6362E+02
   2.150  0.2936E+01  0.6365E+02
   2.160  0.2929E+01  0.6368E+02
   2.170  0.2886E+01  0.6371E+02
   2.180  0.2874E+01  0.6374E+02
   2.190  0.2856E+01  0.6377E+02
   2.200  0.2864E+01  0.6380E+02
   2.210  0.2884E+01  0.6382E+02
   2.220  0.3005E+01  0.6386E+02
   2.230  0.2987E+01  0.6389E+02
   2.240  0.2986E+01  0.6392E+02
   2.250  0.2996E+01  0.6394E+02
   2.260  0.3006E+01  0.6398E+02
   2.270  0.3058E+01  0.6401E+02
   2.280  0.3067E+01  0.6404E+02
   2.290  0.3197E+01  0.6407E+02
   2.300  0.3033E+01  0.6410E+02
   2.310  0.3037E+01  0.6413E+02
   2.320  0.3055E+01  0.6416E+02
   2.330  0.3016E+01  0.6419E+02
   2.340  0.2991E+01  0.6422E+02
   2.350  0.3088E+01  0.6425E+02
   2.360  0.3057E+01  0.6428E+02
   2.370  0.2985E+01  0.6431E+02
   2.380  0.2963E+01  0.6434E+02
   2.390  0.2945E+01  0.6437E+02
   2.400  0.3176E+01  0.6440E+02
   2.410  0.3085E+01  0.6443E+02
   2.420  0.3049E+01  0.6447E+02
   2.430  0.3048E+01  0.6450E+02
   2.440  0.3048E+01  0.6453E+02
   2.450  0.3269E+01  0.6456E+02
   2.460  0.3205E+01  0.6459E+02
   2.470  0.3210E+01  0.6462E+02
   2.480  0.3179E+01  0.6465E+02
   2.490  0.3192E+01  0.6469E+02
   2.500  0.3212E+01  0.6472E+02
   2.510  0.3235E+01  0.6475E+02
   2.520  0.3254E+01  0.6478E+02
   2.530  0.3267E+01  0.6482E+02
   2.540  0.3287E+01  0.6485E+02
   2.550  0.3319E+01  0.6488E+02
   2.560  0.3373E+01  0.6492E+02
   2.570  0.3378E+01  0.6495E+02
   2.580  0.3401E+01  0.6498E+02
   2.590  0.3456E+01  0.6502E+02
   2.600  0.3471E+01  0.6505E+02
   2.610  0.3489E+01  0.6509E+02
   2.620  0.3541E+01  0.6512E+02
   2.630  0.3613E+01  0.6516E+02
   2.640  0.3694E+01  0.6519E+02
   2.650  0.3788E+01  0.6523E+02
   2.660  0.3879E+01  0.6527E+02
   2.670  0.4017E+01  0.6531E+02
   2.680  0.4196E+01  0.6535E+02
   2.690  0.5935E+01  0.6539E+02
   2.700  0.4453E+01  0.6545E+02
   2.710  0.4256E+01  0.6549E+02
   2.720  0.4116E+01  0.6553E+02
   2.730  0.4044E+01  0.6557E+02
   2.740  0.3959E+01  0.6561E+02
   2.750  0.3888E+01  0.6565E+02
   2.760  0.3824E+01  0.6569E+02
   2.770  0.3787E+01  0.6573E+02
   2.780  0.3746E+01  0.6577E+02
   2.790  0.3731E+01  0.6581E+02
   2.800  0.3714E+01  0.6584E+02
   2.810  0.3711E+01  0.6588E+02
   2.820  0.3752E+01  0.6592E+02
   2.830  0.3855E+01  0.6596E+02
   2.840  0.3825E+01  0.6599E+02
   2.850  0.3663E+01  0.6603E+02
   2.860  0.3458E+01  0.6607E+02
   2.870  0.3359E+01  0.6610E+02
   2.880  0.3332E+01  0.6613E+02
   2.890  0.3324E+01  0.6617E+02
   2.900  0.3350E+01  0.6620E+02
   2.910  0.3438E+01  0.6623E+02
   2.920  0.3471E+01  0.6627E+02
   2.930  0.3512E+01  0.6630E+02
   2.940  0.3568E+01  0.6634E+02
   2.950  0.3632E+01  0.6638E+02
   2.960  0.3878E+01  0.6641E+02
   2.970  0.4504E+01  0.6645E+02
   2.980  0.4031E+01  0.6649E+02
   2.990  0.4395E+01  0.6654E+02
   3.000  0.3627E+01  0.6658E+02
   3.010  0.3562E+01  0.6661E+02
   3.020  0.3312E+01  0.6665E+02
   3.030  0.3164E+01  0.6668E+02
   3.040  0.3097E+01  0.6671E+02
   3.050  0.3222E+01  0.6674E+02
   3.060  0.3325E+01  0.6677E+02
   3.070  0.3412E+01  0.6681E+02
   3.080  0.3416E+01  0.6684E+02
   3.090  0.3399E+01  0.6687E+02
   3.100  0.3295E+01  0.6691E+02
   3.110  0.3194E+01  0.6694E+02
   3.120  0.3246E+01  0.6697E+02
   3.130  0.2961E+01  0.6700E+02
   3.140  0.2875E+01  0.6703E+02
   3.150  0.2839E+01  0.6706E+02
   3.160  0.2276E+01  0.6709E+02
   3.170  0.2240E+01  0.6711E+02
   3.180  0.2265E+01  0.6713E+02
   3.190  0.2315E+01  0.6716E+02
   3.200  0.2412E+01  0.6718E+02
   3.210  0.2572E+01  0.6720E+02
   3.220  0.2536E+01  0.6723E+02
   3.230  0.2490E+01  0.6726E+02
   3.240  0.2470E+01  0.6728E+02
   3.250  0.2467E+01  0.6731E+02
   3.260  0.2500E+01  0.6733E+02
   3.270  0.2409E+01  0.6736E+02
   3.280  0.2434E+01  0.6738E+02
   3.290  0.2453E+01  0.6741E+02
   3.300  0.2469E+01  0.6743E+02
   3.310  0.2586E+01  0.6745E+02
   3.320  0.2542E+01  0.6748E+02
   3.330  0.2357E+01  0.6751E+02
   3.340  0.2430E+01  0.6753E+02
   3.350  0.2543E+01  0.6755E+02
   3.360  0.2536E+01  0.6758E+02
   3.370  0.2587E+01  0.6761E+02
   3.380  0.2850E+01  0.6763E+02
   3.390  0.2948E+01  0.6766E+02
   3.400  0.2864E+01  0.6769E+02
   3.410  0.2779E+01  0.6772E+02
   3.420  0.2712E+01  0.6775E+02
   3.430  0.2657E+01  0.6777E+02
   3.440  0.2647E+01  0.6780E+02
   3.450  0.2649E+01  0.6783E+02
   3.460  0.2653E+01  0.6785E+02
   3.470  0.2654E+01  0.6788E+02
   3.480  0.2655E+01  0.6791E+02
   3.490  0.2653E+01  0.6793E+02
   3.500  0.2665E+01  0.6796E+02
   3.510  0.2679E+01  0.6799E+02
   3.520  0.2689E+01  0.6801E+02
   3.530  0.2706E+01  0.6804E+02
   3.540  0.2716E+01  0.6807E+02
   3.550  0.2740E+01  0.6809E+02
   3.560  0.2770E+01  0.6812E+02
   3.570  0.2795E+01  0.6815E+02
   3.580  0.2816E+01  0.6818E+02
   3.590  0.2863E+01  0.6821E+02
   3.600  0.2919E+01  0.6823E+02
   3.610  0.2979E+01  0.6826E+02
   3.620  0.3041E+01  0.6829E+02
   3.630  0.3121E+01  0.6832E+02
   3.640  0.3314E+01  0.6836E+02
   3.650  0.3406E+01  0.6839E+02
   3.660  0.3289E+01  0.6842E+02
   3.670  0.3156E+01  0.6846E+02
   3.680  0.3124E+01  0.6849E+02
   3.690  0.3085E+01  0.6852E+02
   3.700  0.3063E+01  0.6855E+02
   3.710  0.3169E+01  0.6858E+02
   3.720  0.3306E+01  0.6861E+02
   3.730  0.2944E+01  0.6865E+02
   3.740  0.3676E+01  0.6868E+02
   3.750  0.4539E+01  0.6872E+02
   3.760  0.4368E+01  0.6877E+02
   3.770  0.4190E+01  0.6881E+02
   3.780  0.4293E+01  0.6885E+02
   3.790  0.4358E+01  0.6890E+02
   3.800  0.4542E+01  0.6894E+02
   3.810  0.4749E+01  0.6899E+02
   3.820  0.4994E+01  0.6904E+02
   3.830  0.5382E+01  0.6909E+02
   3.840  0.5866E+01  0.6914E+02
   3.850  0.6310E+01  0.6921E+02
   3.860  0.6238E+01  0.6927E+02
   3.870  0.7260E+01  0.6934E+02
   3.880  0.7288E+01  0.6941E+02
   3.890  0.7198E+01  0.6949E+02
   3.900  0.4690E+01  0.6954E+02
   3.910  0.4778E+01  0.6959E+02
   3.920  0.4675E+01  0.6964E+02
   3.930  0.4864E+01  0.6969E+02
   3.940  0.4689E+01  0.6974E+02
   3.950  0.5355E+01  0.6978E+02
   3.960  0.5237E+01  0.6984E+02
   3.970  0.4888E+01  0.6989E+02
   3.980  0.4640E+01  0.6994E+02
   3.990  0.4963E+01  0.6999E+02
   4.000  0.4673E+01  0.7003E+02
   4.010  0.4784E+01  0.7008E+02
   4.020  0.4810E+01  0.7013E+02
   4.030  0.4994E+01  0.7018E+02
   4.040  0.5132E+01  0.7023E+02
   4.050  0.5625E+01  0.7028E+02
   4.060  0.5176E+01  0.7034E+02
   4.070  0.5466E+01  0.7039E+02
   4.080  0.5597E+01  0.7044E+02
   4.090  0.5704E+01  0.7050E+02
   4.100  0.5836E+01  0.7056E+02
   4.110  0.6464E+01  0.7062E+02
   4.120  0.7452E+01  0.7069E+02
   4.130  0.6942E+01  0.7076E+02
   4.140  0.6559E+01  0.7083E+02
   4.150  0.8143E+01  0.7090E+02
   4.160  0.6500E+01  0.7098E+02
   4.170  0.6400E+01  0.7104E+02
   4.180  0.5559E+01  0.7110E+02
   4.190  0.3852E+01  0.7115E+02
   4.200  0.3114E+01  0.7119E+02
   4.210  0.1742E+01  0.7122E+02
   4.220  0.1603E+01  0.7124E+02
   4.230  0.1455E+01  0.7125E+02
   4.240  0.1399E+01  0.7127E+02
   4.250  0.2116E+01  0.7129E+02
   4.260  0.2146E+01  0.7131E+02
   4.270  0.2019E+01  0.7133E+02
   4.280  0.2192E+01  0.7135E+02
   4.290  0.2551E+01  0.7137E+02
   4.300  0.1931E+01  0.7140E+02
   4.310  0.1351E+01  0.7141E+02
   4.320  0.1001E+01  0.7142E+02
   4.330  0.7728E+00  0.7143E+02
   4.340  0.1191E+01  0.7144E+02
   4.350  0.1828E+01  0.7146E+02
   4.360  0.1816E+01  0.7148E+02
   4.370  0.2076E+01  0.7150E+02
   4.380  0.1996E+01  0.7152E+02
   4.390  0.1891E+01  0.7154E+02
   4.400  0.1741E+01  0.7155E+02
   4.410  0.1724E+01  0.7157E+02
   4.420  0.1720E+01  0.7159E+02
   4.430  0.3230E+01  0.7161E+02
   4.440  0.2799E+01  0.7164E+02
   4.450  0.3021E+01  0.7166E+02
   4.460  0.3181E+01  0.7170E+02
   4.470  0.4637E+01  0.7174E+02
   4.480  0.5499E+01  0.7179E+02
   4.490  0.7734E+01  0.7185E+02
   4.500  0.5642E+01  0.7192E+02
   4.510  0.3910E+01  0.7197E+02
   4.520  0.2880E+01  0.7200E+02
   4.530  0.3880E+01  0.7203E+02
   4.540  0.4693E+01  0.7208E+02
   4.550  0.4220E+01  0.7212E+02
   4.560  0.3909E+01  0.7216E+02
   4.570  0.3699E+01  0.7220E+02
   4.580  0.3604E+01  0.7224E+02
   4.590  0.3546E+01  0.7227E+02
   4.600  0.3512E+01  0.7231E+02
   4.610  0.3470E+01  0.7234E+02
   4.620  0.3428E+01  0.7238E+02
   4.630  0.3378E+01  0.7241E+02
   4.640  0.3402E+01  0.7244E+02
   4.650  0.3333E+01  0.7248E+02
   4.660  0.3260E+01  0.7251E+02
   4.670  0.3100E+01  0.7254E+02
   4.680  0.3070E+01  0.7257E+02
   4.690  0.3042E+01  0.7260E+02
   4.700  0.3063E+01  0.7263E+02
   4.710  0.3068E+01  0.7267E+02
   4.720  0.3035E+01  0.7270E+02
   4.730  0.3267E+01  0.7273E+02
   4.740  0.3220E+01  0.7276E+02
   4.750  0.3206E+01  0.7279E+02
   4.760  0.3300E+01  0.7282E+02
   4.770  0.3267E+01  0.7286E+02
   4.780  0.3133E+01  0.7289E+02
   4.790  0.2553E+01  0.7292E+02
   4.800  0.2552E+01  0.7294E+02
   4.810  0.2558E+01  0.7297E+02
   4.820  0.2578E+01  0.7299E+02
   4.830  0.2593E+01  0.7302E+02
   4.840  0.2603E+01  0.7305E+02
   4.850  0.2611E+01  0.7307E+02
   4.860  0.2633E+01  0.7310E+02
   4.870  0.2645E+01  0.7312E+02
   4.880  0.2656E+01  0.7315E+02
   4.890  0.2681E+01  0.7318E+02
   4.900  0.2697E+01  0.7321E+02
   4.910  0.2726E+01  0.7323E+02
   4.920  0.2756E+01  0.7326E+02
   4.930  0.2816E+01  0.7329E+02
   4.940  0.2853E+01  0.7332E+02
   4.950  0.2879E+01  0.7334E+02
   4.960  0.2928E+01  0.7337E+02
   4.970  0.3021E+01  0.7340E+02
   4.980  0.3116E+01  0.7343E+02
   4.990  0.3226E+01  0.7347E+02
   5.000  0.3384E+01  0.7350E+02
   5.010  0.3591E+01  0.7353E+02
   5.020  0.5361E+01  0.7358E+02
   5.030  0.7046E+01  0.7365E+02
   5.040  0.3785E+01  0.7371E+02
   5.050  0.3445E+01  0.7375E+02
   5.060  0.3372E+01  0.7378E+02
   5.070  0.3292E+01  0.7381E+02
   5.080  0.3154E+01  0.7385E+02
   5.090  0.3098E+01  0.7388E+02
   5.100  0.3080E+01  0.7391E+02
   5.110  0.3069E+01  0.7394E+02
   5.120  0.3024E+01  0.7397E+02
   5.130  0.3003E+01  0.7400E+02
   5.140  0.2975E+01  0.7403E+02
   5.150  0.2946E+01  0.7406E+02
   5.160  0.2918E+01  0.7409E+02
   5.170  0.2899E+01  0.7412E+02
   5.180  0.2931E+01  0.7415E+02
   5.190  0.2894E+01  0.7418E+02
   5.200  0.2900E+01  0.7421E+02
   5.210  0.2879E+01  0.7423E+02
   5.220  0.2874E+01  0.7426E+02
   5.230  0.2861E+01  0.7429E+02
   5.240  0.2917E+01  0.7432E+02
   5.250  0.2888E+01  0.7435E+02
   5.260  0.2873E+01  0.7438E+02
   5.270  0.2841E+01  0.7441E+02
   5.280  0.2863E+01  0.7444E+02
   5.290  0.2944E+01  0.7447E+02
   5.300  0.2842E+01  0.7449E+02
   5.310  0.2785E+01  0.7452E+02
   5.320  0.2872E+01  0.7455E+02
   5.330  0.2645E+01  0.7458E+02
   5.340  0.2401E+01  0.7461E+02
   5.350  0.3809E+01  0.7463E+02
   5.360  0.3914E+01  0.7467E+02
   5.370  0.5455E+01  0.7472E+02
   5.380  0.4128E+01  0.7477E+02
   5.390  0.3766E+01  0.7481E+02
   5.400  0.3599E+01  0.7484E+02
   5.410  0.3546E+01  0.7488E+02
   5.420  0.3506E+01  0.7492E+02
   5.430  0.3476E+01  0.7495E+02
   5.440  0.3462E+01  0.7498E+02
   5.450  0.3465E+01  0.7502E+02
   5.460  0.3433E+01  0.7505E+02
   5.470  0.3436E+01  0.7509E+02
   5.480  0.3448E+01  0.7512E+02
   5.490  0.3452E+01  0.7516E+02
   5.500  0.3452E+01  0.7519E+02
   5.510  0.3472E+01  0.7523E+02
   5.520  0.3940E+01  0.7526E+02
   5.530  0.4030E+01  0.7530E+02
   5.540  0.4152E+01  0.7534E+02
   5.550  0.4288E+01  0.7539E+02
   5.560  0.4592E+01  0.7543E+02
   5.570  0.4527E+01  0.7548E+02
   5.580  0.4472E+01  0.7552E+02
   5.590  0.4370E+01  0.7557E+02
   5.600  0.4417E+01  0.7561E+02
   5.610  0.4107E+01  0.7566E+02
   5.620  0.4410E+01  0.7570E+02
   5.630  0.4174E+01  0.7574E+02
   5.640  0.4104E+01  0.7579E+02
   5.650  0.4262E+01  0.7583E+02
   5.660  0.4402E+01  0.7587E+02
   5.670  0.5174E+01  0.7592E+02
   5.680  0.4193E+01  0.7597E+02
   5.690  0.3998E+01  0.7601E+02
   5.700  0.4014E+01  0.7605E+02
   5.710  0.4202E+01  0.7609E+02
   5.720  0.5003E+01  0.7614E+02
   5.730  0.4652E+01  0.7619E+02
   5.740  0.4086E+01  0.7623E+02
   5.750  0.3962E+01  0.7627E+02
   5.760  0.3844E+01  0.7631E+02
   5.770  0.3802E+01  0.7635E+02
   5.780  0.3847E+01  0.7639E+02
   5.790  0.3883E+01  0.7643E+02
   5.800  0.3948E+01  0.7647E+02
   5.810  0.3714E+01  0.7651E+02
   5.820  0.3606E+01  0.7654E+02
   5.830  0.3441E+01  0.7658E+02
   5.840  0.3073E+01  0.7661E+02
   5.850  0.3044E+01  0.7664E+02
   5.860  0.3108E+01  0.7667E+02
   5.870  0.3200E+01  0.7671E+02
   5.880  0.3112E+01  0.7674E+02
   5.890  0.3538E+01  0.7677E+02
   5.900  0.5651E+01  0.7681E+02
   5.910  0.5692E+01  0.7687E+02
   5.920  0.6098E+01  0.7693E+02
   5.930  0.5830E+01  0.7699E+02
   5.940  0.5714E+01  0.7705E+02
   5.950  0.5539E+01  0.7710E+02
   5.960  0.5435E+01  0.7716E+02
   5.970  0.5517E+01  0.7721E+02
   5.980  0.5975E+01  0.7727E+02
   5.990  0.5411E+01  0.7732E+02
   6.000  0.5158E+01  0.7738E+02
   6.010  0.4999E+01  0.7743E+02
   6.020  0.4991E+01  0.7748E+02
   6.030  0.5154E+01  0.7753E+02
   6.040  0.5576E+01  0.7758E+02
   6.050  0.5159E+01  0.7764E+02
   6.060  0.5101E+01  0.7769E+02
   6.070  0.4775E+01  0.7774E+02
   6.080  0.4660E+01  0.7778E+02
   6.090  0.4578E+01  0.7783E+02
   6.100  0.4513E+01  0.7787E+02
   6.110  0.4474E+01  0.7792E+02
   6.120  0.4406E+01  0.7796E+02
   6.130  0.4329E+01  0.7801E+02
   6.140  0.4275E+01  0.7805E+02
   6.150  0.4229E+01  0.7809E+02
   6.160  0.4186E+01  0.7814E+02
   6.170  0.4145E+01  0.7818E+02
   6.180  0.4227E+01  0.7822E+02
   6.190  0.4113E+01  0.7826E+02
   6.200  0.4068E+01  0.7830E+02
   6.210  0.4009E+01  0.7834E+02
   6.220  0.4222E+01  0.7839E+02
   6.230  0.4066E+01  0.7843E+02
   6.240  0.3917E+01  0.7847E+02
   6.250  0.3760E+01  0.7851E+02
   6.260  0.3756E+01  0.7855E+02
   6.270  0.3812E+01  0.7858E+02
   6.280  0.3825E+01  0.7862E+02
   6.290  0.3804E+01  0.7866E+02
   6.300  0.4372E+01  0.7870E+02
   6.310  0.4201E+01  0.7874E+02
   6.320  0.4282E+01  0.7878E+02
   6.330  0.4370E+01  0.7883E+02
   6.340  0.4583E+01  0.7887E+02
   6.350  0.4310E+01  0.7892E+02
   6.360  0.4450E+01  0.7896E+02
   6.370  0.4637E+01  0.7900E+02
   6.380  0.5014E+01  0.7905E+02
   6.390  0.7310E+01  0.7911E+02
   6.400  0.6479E+01  0.7918E+02
   6.410  0.6245E+01  0.7924E+02
   6.420  0.6177E+01  0.7930E+02
   6.430  0.7415E+01  0.7937E+02
   6.440  0.8508E+01  0.7945E+02
   6.450  0.7667E+01  0.7953E+02
   6.460  0.7328E+01  0.7960E+02
   6.470  0.6947E+01  0.7967E+02
   6.480  0.6693E+01  0.7974E+02
   6.490  0.6184E+01  0.7981E+02
   6.500  0.6404E+01  0.7987E+02
   6.510  0.6453E+01  0.7993E+02
   6.520  0.6450E+01  0.8000E+02
   6.530  0.6439E+01  0.8006E+02
   6.540  0.6520E+01  0.8013E+02
   6.550  0.6846E+01  0.8019E+02
   6.560  0.6972E+01  0.8026E+02
   6.570  0.7252E+01  0.8033E+02
   6.580  0.7081E+01  0.8041E+02
   6.590  0.7211E+01  0.8048E+02
   6.600  0.6706E+01  0.8055E+02
   6.610  0.6529E+01  0.8061E+02
   6.620  0.6397E+01  0.8068E+02
   6.630  0.6108E+01  0.8074E+02
   6.640  0.6307E+01  0.8080E+02
   6.650  0.6651E+01  0.8086E+02
   6.660  0.6956E+01  0.8093E+02
   6.670  0.8285E+01  0.8101E+02
   6.680  0.1113E+02  0.8111E+02
   6.690  0.1098E+02  0.8123E+02
   6.700  0.1089E+02  0.8134E+02
   6.710  0.8596E+01  0.8144E+02
   6.720  0.8122E+01  0.8152E+02
   6.730  0.7268E+01  0.8160E+02
   6.740  0.7991E+01  0.8167E+02
   6.750  0.8493E+01  0.8176E+02
   6.760  0.6290E+01  0.8183E+02
   6.770  0.6066E+01  0.8189E+02
   6.780  0.6048E+01  0.8195E+02
   6.790  0.6718E+01  0.8201E+02
   6.800  0.6885E+01  0.8208E+02
   6.810  0.6682E+01  0.8215E+02
   6.820  0.6538E+01  0.8221E+02
   6.830  0.6491E+01  0.8228E+02
   6.840  0.6686E+01  0.8234E+02
   6.850  0.5669E+01  0.8241E+02
   6.860  0.5241E+01  0.8246E+02
   6.870  0.5118E+01  0.8251E+02
   6.880  0.5076E+01  0.8257E+02
   6.890  0.5341E+01  0.8262E+02
   6.900  0.5463E+01  0.8267E+02
   6.910  0.5620E+01  0.8273E+02
   6.920  0.6287E+01  0.8279E+02
   6.930  0.6337E+01  0.8285E+02
   6.940  0.5942E+01  0.8291E+02
   6.950  0.5656E+01  0.8297E+02
   6.960  0.5299E+01  0.8302E+02
   6.970  0.5521E+01  0.8308E+02
   6.980  0.4754E+01  0.8313E+02
   6.990  0.4921E+01  0.8318E+02
   7.000  0.5516E+01  0.8323E+02
   7.010  0.5447E+01  0.8328E+02
   7.020  0.5370E+01  0.8334E+02
   7.030  0.5723E+01  0.8339E+02
   7.040  0.6046E+01  0.8345E+02
   7.050  0.6193E+01  0.8351E+02
   7.060  0.7655E+01  0.8358E+02
   7.070  0.6899E+01  0.8365E+02
   7.080  0.9025E+01  0.8373E+02
   7.090  0.9118E+01  0.8382E+02
   7.100  0.9325E+01  0.8391E+02
   7.110  0.8987E+01  0.8400E+02
   7.120  0.7422E+01  0.8408E+02
   7.130  0.6379E+01  0.8415E+02
   7.140  0.6427E+01  0.8421E+02
   7.150  0.7045E+01  0.8428E+02
   7.160  0.6728E+01  0.8435E+02
   7.170  0.6623E+01  0.8442E+02
   7.180  0.6608E+01  0.8448E+02
   7.190  0.6061E+01  0.8455E+02
   7.200  0.5779E+01  0.8461E+02
   7.210  0.5254E+01  0.8466E+02
   7.220  0.5210E+01  0.8471E+02
   7.230  0.4972E+01  0.8476E+02
   7.240  0.4607E+01  0.8481E+02
   7.250  0.4693E+01  0.8486E+02
   7.260  0.4312E+01  0.8490E+02
   7.270  0.4331E+01  0.8495E+02
   7.280  0.4356E+01  0.8499E+02
   7.290  0.4125E+01  0.8504E+02
   7.300  0.3880E+01  0.8508E+02
   7.310  0.3786E+01  0.8511E+02
   7.320  0.3730E+01  0.8515E+02
   7.330  0.3862E+01  0.8519E+02
   7.340  0.5078E+01  0.8523E+02
   7.350  0.4025E+01  0.8528E+02
   7.360  0.4329E+01  0.8532E+02
   7.370  0.4192E+01  0.8536E+02
   7.380  0.4379E+01  0.8541E+02
   7.390  0.4425E+01  0.8545E+02
   7.400  0.4712E+01  0.8550E+02
   7.410  0.5074E+01  0.8555E+02
   7.420  0.4937E+01  0.8560E+02
   7.430  0.5237E+01  0.8565E+02
   7.440  0.6499E+01  0.8571E+02
   7.450  0.6203E+01  0.8578E+02
   7.460  0.6102E+01  0.8584E+02
   7.470  0.5770E+01  0.8590E+02
   7.480  0.5521E+01  0.8596E+02
   7.490  0.5613E+01  0.8601E+02
   7.500  0.5448E+01  0.8607E+02
   7.510  0.5550E+01  0.8612E+02
   7.520  0.5331E+01  0.8618E+02
   7.530  0.5518E+01  0.8623E+02
   7.540  0.5870E+01  0.8629E+02
   7.550  0.5853E+01  0.8635E+02
   7.560  0.6351E+01  0.8641E+02
   7.570  0.6277E+01  0.8647E+02
   7.580  0.6243E+01  0.8654E+02
   7.590  0.5806E+01  0.8660E+02
   7.600  0.5543E+01  0.8666E+02
   7.610  0.5935E+01  0.8671E+02
   7.620  0.4877E+01  0.8676E+02
   7.630  0.4807E+01  0.8681E+02
   7.640  0.4707E+01  0.8686E+02
   7.650  0.4526E+01  0.8690E+02
   7.660  0.4693E+01  0.8695E+02
   7.670  0.4059E+01  0.8700E+02
   7.680  0.3767E+01  0.8704E+02
   7.690  0.3723E+01  0.8707E+02
   7.700  0.3749E+01  0.8711E+02
   7.710  0.3777E+01  0.8715E+02
   7.720  0.3919E+01  0.8719E+02
   7.730  0.4328E+01  0.8723E+02
   7.740  0.3939E+01  0.8727E+02
   7.750  0.3960E+01  0.8731E+02
   7.760  0.4064E+01  0.8735E+02
   7.770  0.4005E+01  0.8739E+02
   7.780  0.3783E+01  0.8743E+02
   7.790  0.3590E+01  0.8747E+02
   7.800  0.3591E+01  0.8750E+02
   7.810  0.3802E+01  0.8754E+02
   7.820  0.3885E+01  0.8758E+02
   7.830  0.3917E+01  0.8762E+02
   7.840  0.4065E+01  0.8766E+02
   7.850  0.4597E+01  0.8770E+02
   7.860  0.4554E+01  0.8775E+02
   7.870  0.4760E+01  0.8780E+02
   7.880  0.5104E+01  0.8784E+02
   7.890  0.8693E+01  0.8791E+02
   7.900  0.7045E+01  0.8799E+02
   7.910  0.6430E+01  0.8806E+02
   7.920  0.6636E+01  0.8812E+02
   7.930  0.6036E+01  0.8819E+02
   7.940  0.5804E+01  0.8824E+02
   7.950  0.5512E+01  0.8830E+02
   7.960  0.5376E+01  0.8836E+02
   7.970  0.5289E+01  0.8841E+02
   7.980  0.5218E+01  0.8846E+02
   7.990  0.5115E+01  0.8851E+02
   8.000  0.5112E+01  0.8856E+02
   8.010  0.5270E+01  0.8862E+02
   8.020  0.6053E+01  0.8867E+02
   8.030  0.6043E+01  0.8873E+02
   8.040  0.6268E+01  0.8879E+02
   8.050  0.6190E+01  0.8885E+02
   8.060  0.5937E+01  0.8892E+02
   8.070  0.5977E+01  0.8898E+02
   8.080  0.6134E+01  0.8904E+02
   8.090  0.6234E+01  0.8910E+02
   8.100  0.6367E+01  0.8916E+02
   8.110  0.6409E+01  0.8923E+02
   8.120  0.6586E+01  0.8929E+02
   8.130  0.6725E+01  0.8936E+02
   8.140  0.6490E+01  0.8943E+02
   8.150  0.6478E+01  0.8949E+02
   8.160  0.6732E+01  0.8956E+02
   8.170  0.6416E+01  0.8962E+02
   8.180  0.6568E+01  0.8969E+02
   8.190  0.6261E+01  0.8975E+02
   8.200  0.6541E+01  0.8982E+02
   8.210  0.6185E+01  0.8988E+02
   8.220  0.5896E+01  0.8994E+02
   8.230  0.5629E+01  0.9000E+02
   8.240  0.5993E+01  0.9005E+02
   8.250  0.6413E+01  0.9012E+02
   8.260  0.6650E+01  0.9018E+02
   8.270  0.7008E+01  0.9025E+02
   8.280  0.6688E+01  0.9032E+02
   8.290  0.6437E+01  0.9039E+02
   8.300  0.6633E+01  0.9046E+02
   8.310  0.7176E+01  0.9053E+02
   8.320  0.7575E+01  0.9060E+02
   8.330  0.7605E+01  0.9068E+02
   8.340  0.8042E+01  0.9075E+02
   8.350  0.8301E+01  0.9083E+02
   8.360  0.9126E+01  0.9092E+02
   8.370  0.8160E+01  0.9101E+02
   8.380  0.8419E+01  0.9109E+02
   8.390  0.9175E+01  0.9118E+02
   8.400  0.1010E+02  0.9127E+02
   8.410  0.1002E+02  0.9137E+02
   8.420  0.9598E+01  0.9147E+02
   8.430  0.7495E+01  0.9156E+02
   8.440  0.7415E+01  0.9163E+02
   8.450  0.7562E+01  0.9171E+02
   8.460  0.6728E+01  0.9178E+02
   8.470  0.6791E+01  0.9184E+02
   8.480  0.6906E+01  0.9191E+02
   8.490  0.7446E+01  0.9198E+02
   8.500  0.5621E+01  0.9205E+02
   8.510  0.5738E+01  0.9211E+02
   8.520  0.5693E+01  0.9217E+02
   8.530  0.5903E+01  0.9222E+02
   8.540  0.5682E+01  0.9228E+02
   8.550  0.5904E+01  0.9234E+02
   8.560  0.6323E+01  0.9240E+02
   8.570  0.6234E+01  0.9247E+02
   8.580  0.6595E+01  0.9253E+02
   8.590  0.7037E+01  0.9260E+02
   8.600  0.6407E+01  0.9267E+02
   8.610  0.6387E+01  0.9274E+02
   8.620  0.6769E+01  0.9280E+02
   8.630  0.7159E+01  0.9287E+02
   8.640  0.7314E+01  0.9294E+02
   8.650  0.7429E+01  0.9302E+02
   8.660  0.7423E+01  0.9309E+02
   8.670  0.7415E+01  0.9317E+02
   8.680  0.7708E+01  0.9324E+02
   8.690  0.7928E+01  0.9332E+02
   8.700  0.8390E+01  0.9340E+02
   8.710  0.9031E+01  0.9349E+02
   8.720  0.9195E+01  0.9358E+02
   8.730  0.9398E+01  0.9368E+02
   8.740  0.9101E+01  0.9377E+02
   8.750  0.9731E+01  0.9386E+02
   8.760  0.8895E+01  0.9396E+02
   8.770  0.9598E+01  0.9405E+02
   8.780  0.8903E+01  0.9414E+02
   8.790  0.8313E+01  0.9423E+02
   8.800  0.7934E+01  0.9431E+02
   8.810  0.7726E+01  0.9438E+02
   8.820  0.6812E+01  0.9446E+02
   8.830  0.6534E+01  0.9453E+02
   8.840  0.6568E+01  0.9459E+02
   8.850  0.6574E+01  0.9466E+02
   8.860  0.6507E+01  0.9472E+02
   8.870  0.6489E+01  0.9479E+02
   8.880  0.6831E+01  0.9485E+02
   8.890  0.6920E+01  0.9492E+02
   8.900  0.6747E+01  0.9499E+02
   8.910  0.6541E+01  0.9506E+02
   8.920  0.6260E+01  0.9512E+02
   8.930  0.6122E+01  0.9519E+02
   8.940  0.6303E+01  0.9525E+02
   8.950  0.6079E+01  0.9531E+02
   8.960  0.6003E+01  0.9537E+02
   8.970  0.5950E+01  0.9543E+02
   8.980  0.6032E+01  0.9549E+02
   8.990  0.6150E+01  0.9555E+02
   9.000  0.6020E+01  0.9561E+02
   9.010  0.5889E+01  0.9567E+02
   9.020  0.5716E+01  0.9573E+02
   9.030  0.5614E+01  0.9579E+02
   9.040  0.5860E+01  0.9585E+02
   9.050  0.6612E+01  0.9591E+02
   9.060  0.7476E+01  0.9598E+02
   9.070  0.7670E+01  0.9605E+02
   9.080  0.7046E+01  0.9613E+02
   9.090  0.6260E+01  0.9620E+02
   9.100  0.6125E+01  0.9626E+02
   9.110  0.6162E+01  0.9632E+02
   9.120  0.6669E+01  0.9638E+02
   9.130  0.6992E+01  0.9645E+02
   9.140  0.7001E+01  0.9654E+02
   9.150  0.6630E+01  0.9660E+02
   9.160  0.6536E+01  0.9667E+02
   9.170  0.6769E+01  0.9674E+02
   9.180  0.6628E+01  0.9680E+02
   9.190  0.6609E+01  0.9687E+02
   9.200  0.6303E+01  0.9693E+02
   9.210  0.5802E+01  0.9700E+02
   9.220  0.5472E+01  0.9705E+02
   9.230  0.5852E+01  0.9711E+02
   9.240  0.6427E+01  0.9717E+02
   9.250  0.7116E+01  0.9724E+02
   9.260  0.7726E+01  0.9731E+02
   9.270  0.7529E+01  0.9739E+02
   9.280  0.7671E+01  0.9746E+02
   9.290  0.7957E+01  0.9754E+02
   9.300  0.8529E+01  0.9763E+02
   9.310  0.8595E+01  0.9771E+02
   9.320  0.8492E+01  0.9780E+02
   9.330  0.8981E+01  0.9788E+02
   9.340  0.8579E+01  0.9797E+02
   9.350  0.8992E+01  0.9806E+02
   9.360  0.7555E+01  0.9815E+02
   9.370  0.7078E+01  0.9822E+02
   9.380  0.7660E+01  0.9829E+02
   9.390  0.7072E+01  0.9837E+02
   9.400  0.7352E+01  0.9844E+02
   9.410  0.7480E+01  0.9851E+02
   9.420  0.8227E+01  0.9859E+02
   9.430  0.7489E+01  0.9867E+02
   9.440  0.7385E+01  0.9874E+02
   9.450  0.7344E+01  0.9882E+02
   9.460  0.7552E+01  0.9890E+02
   9.470  0.6684E+01  0.9897E+02
   9.480  0.6503E+01  0.9903E+02
   9.490  0.6650E+01  0.9910E+02
   9.500  0.6279E+01  0.9916E+02
   9.510  0.6177E+01  0.9922E+02
   9.520  0.5933E+01  0.9929E+02
   9.530  0.5767E+01  0.9935E+02
   9.540  0.6117E+01  0.9940E+02
   9.550  0.6802E+01  0.9947E+02
   9.560  0.5815E+01  0.9953E+02
   9.570  0.5796E+01  0.9959E+02
   9.580  0.6372E+01  0.9965E+02
   9.590  0.6059E+01  0.9971E+02
   9.600  0.6045E+01  0.9977E+02
   9.610  0.6280E+01  0.9984E+02
   9.620  0.6486E+01  0.9990E+02
   9.630  0.6905E+01  0.9997E+02
   9.640  0.7060E+01  0.1000E+03
   9.650  0.7178E+01  0.1001E+03
   9.660  0.6821E+01  0.1002E+03
   9.670  0.6900E+01  0.1002E+03
   9.680  0.6839E+01  0.1003E+03
   9.690  0.6731E+01  0.1004E+03
   9.700  0.6586E+01  0.1005E+03
   9.710  0.6491E+01  0.1005E+03
   9.720  0.6614E+01  0.1006E+03
   9.730  0.6471E+01  0.1006E+03
   9.740  0.6109E+01  0.1007E+03
   9.750  0.5753E+01  0.1008E+03
   9.760  0.6011E+01  0.1008E+03
   9.770  0.6766E+01  0.1009E+03
   9.780  0.6930E+01  0.1010E+03
   9.790  0.6949E+01  0.1010E+03
   9.800  0.7186E+01  0.1011E+03
   9.810  0.7643E+01  0.1012E+03
   9.820  0.7757E+01  0.1013E+03
   9.830  0.8053E+01  0.1013E+03
   9.840  0.7586E+01  0.1014E+03
   9.850  0.7044E+01  0.1015E+03
   9.860  0.7012E+01  0.1016E+03
   9.870  0.6976E+01  0.1016E+03
   9.880  0.7364E+01  0.1017E+03
   9.890  0.7598E+01  0.1018E+03
   9.900  0.7411E+01  0.1018E+03
   9.910  0.7374E+01  0.1019E+03
   9.920  0.7709E+01  0.1020E+03
   9.930  0.8052E+01  0.1021E+03
   9.940  0.8432E+01  0.1022E+03
   9.950  0.9227E+01  0.1022E+03
   9.960  0.9400E+01  0.1023E+03
   9.970  0.9872E+01  0.1024E+03
   9.980  0.9718E+01  0.1025E+03
   9.990  0.9854E+01  0.1026E+03
  10.000  0.9831E+01  0.1027E+03
  10.010  0.9715E+01  0.1028E+03
  10.020  0.9721E+01  0.1029E+03
  10.030  0.9886E+01  0.1030E+03
  10.040  0.1006E+02  0.1031E+03
  10.050  0.9708E+01  0.1032E+03
  10.060  0.9400E+01  0.1033E+03
  10.070  0.8740E+01  0.1034E+03
  10.080  0.8044E+01  0.1035E+03
  10.090  0.7923E+01  0.1036E+03
  10.100  0.8444E+01  0.1037E+03
  10.110  0.9166E+01  0.1038E+03
  10.120  0.8606E+01  0.1038E+03
  10.130  0.8640E+01  0.1039E+03
  10.140  0.8846E+01  0.1040E+03
  10.150  0.8803E+01  0.1041E+03
  10.160  0.8590E+01  0.1042E+03
  10.170  0.9726E+01  0.1043E+03
  10.180  0.7515E+01  0.1044E+03
  10.190  0.6832E+01  0.1044E+03
  10.200  0.7405E+01  0.1045E+03
  10.210  0.7188E+01  0.1046E+03
  10.220  0.7117E+01  0.1047E+03
  10.230  0.7086E+01  0.1047E+03
  10.240  0.7363E+01  0.1048E+03
  10.250  0.7003E+01  0.1049E+03
  10.260  0.6849E+01  0.1049E+03
  10.270  0.6720E+01  0.1050E+03
  10.280  0.6447E+01  0.1051E+03
  10.290  0.6451E+01  0.1051E+03
  10.300  0.6202E+01  0.1052E+03
  10.310  0.6219E+01  0.1053E+03
  10.320  0.6280E+01  0.1053E+03
  10.330  0.5968E+01  0.1054E+03
  10.340  0.6564E+01  0.1055E+03
  10.350  0.7102E+01  0.1055E+03
  10.360  0.8214E+01  0.1056E+03
  10.370  0.7794E+01  0.1057E+03
  10.380  0.8001E+01  0.1058E+03
  10.390  0.8388E+01  0.1059E+03
  10.400  0.8025E+01  0.1059E+03
  10.410  0.7964E+01  0.1060E+03
  10.420  0.8636E+01  0.1061E+03
  10.430  0.8076E+01  0.1062E+03
  10.440  0.8004E+01  0.1063E+03
  10.450  0.7921E+01  0.1063E+03
  10.460  0.7883E+01  0.1064E+03
  10.470  0.8593E+01  0.1065E+03
  10.480  0.8638E+01  0.1066E+03
  10.490  0.8721E+01  0.1067E+03
  10.500  0.7994E+01  0.1068E+03
  10.510  0.8178E+01  0.1068E+03
  10.520  0.8193E+01  0.1069E+03
  10.530  0.8460E+01  0.1070E+03
  10.540  0.9022E+01  0.1071E+03
  10.550  0.9716E+01  0.1072E+03
  10.560  0.9274E+01  0.1073E+03
  10.570  0.8938E+01  0.1074E+03
  10.580  0.8329E+01  0.1075E+03
  10.590  0.8499E+01  0.1076E+03
  10.600  0.8485E+01  0.1076E+03
  10.610  0.8481E+01  0.1077E+03
  10.620  0.8967E+01  0.1078E+03
  10.630  0.8771E+01  0.1079E+03
  10.640  0.8034E+01  0.1080E+03
  10.650  0.8301E+01  0.1081E+03
  10.660  0.8423E+01  0.1081E+03
  10.670  0.7577E+01  0.1082E+03
  10.680  0.7445E+01  0.1083E+03
  10.690  0.7257E+01  0.1084E+03
  10.700  0.7358E+01  0.1084E+03
  10.710  0.6882E+01  0.1085E+03
  10.720  0.6845E+01  0.1086E+03
  10.730  0.6714E+01  0.1087E+03
  10.740  0.6136E+01  0.1087E+03
  10.750  0.6156E+01  0.1088E+03
  10.760  0.6149E+01  0.1088E+03
  10.770  0.5853E+01  0.1089E+03
  10.780  0.5980E+01  0.1090E+03
  10.790  0.6508E+01  0.1090E+03
  10.800  0.6559E+01  0.1091E+03
  10.810  0.7581E+01  0.1092E+03
  10.820  0.6828E+01  0.1092E+03
  10.830  0.6908E+01  0.1093E+03
  10.840  0.7299E+01  0.1094E+03
  10.850  0.7712E+01  0.1095E+03
  10.860  0.7231E+01  0.1095E+03
  10.870  0.7270E+01  0.1096E+03
  10.880  0.7037E+01  0.1097E+03
  10.890  0.6868E+01  0.1097E+03
  10.900  0.6847E+01  0.1098E+03
  10.910  0.6943E+01  0.1099E+03
  10.920  0.6892E+01  0.1099E+03
  10.930  0.7373E+01  0.1100E+03
  10.940  0.7332E+01  0.1101E+03
  10.950  0.8175E+01  0.1102E+03
  10.960  0.7803E+01  0.1102E+03
  10.970  0.8039E+01  0.1103E+03
  10.980  0.8304E+01  0.1104E+03
  10.990  0.8208E+01  0.1105E+03
  11.000  0.8419E+01  0.1106E+03
  11.010  0.8750E+01  0.1107E+03
  11.020  0.8523E+01  0.1107E+03
  11.030  0.9101E+01  0.1108E+03
  11.040  0.9154E+01  0.1109E+03
  11.050  0.9042E+01  0.1110E+03
  11.060  0.8288E+01  0.1111E+03
  11.070  0.8200E+01  0.1112E+03
  11.080  0.8178E+01  0.1113E+03
  11.090  0.8035E+01  0.1114E+03
  11.100  0.8191E+01  0.1114E+03
  11.110  0.7754E+01  0.1115E+03
  11.120  0.7838E+01  0.1116E+03
  11.130  0.7872E+01  0.1117E+03
  11.140  0.7981E+01  0.1117E+03
  11.150  0.8089E+01  0.1118E+03
  11.160  0.7804E+01  0.1119E+03
  11.170  0.7107E+01  0.1120E+03
  11.180  0.6909E+01  0.1121E+03
  11.190  0.6905E+01  0.1121E+03
  11.200  0.6361E+01  0.1122E+03
  11.210  0.6330E+01  0.1123E+03
  11.220  0.6252E+01  0.1123E+03
  11.230  0.6276E+01  0.1124E+03
  11.240  0.6774E+01  0.1124E+03
  11.250  0.6497E+01  0.1125E+03
  11.260  0.6621E+01  0.1126E+03
  11.270  0.7127E+01  0.1126E+03
  11.280  0.7328E+01  0.1127E+03
  11.290  0.7308E+01  0.1128E+03
  11.300  0.7269E+01  0.1129E+03
  11.310  0.7353E+01  0.1129E+03
  11.320  0.7500E+01  0.1130E+03
  11.330  0.7774E+01  0.1131E+03
  11.340  0.7543E+01  0.1132E+03
  11.350  0.7169E+01  0.1132E+03
  11.360  0.7908E+01  0.1133E+03
  11.370  0.8183E+01  0.1134E+03
  11.380  0.9342E+01  0.1135E+03
  11.390  0.9635E+01  0.1136E+03
  11.400  0.9832E+01  0.1137E+03
  11.410  0.1017E+02  0.1138E+03
  11.420  0.9789E+01  0.1139E+03
  11.430  0.1055E+02  0.1140E+03
  11.440  0.1116E+02  0.1141E+03
  11.450  0.1067E+02  0.1142E+03
  11.460  0.1047E+02  0.1143E+03
  11.470  0.1055E+02  0.1144E+03
  11.480  0.1017E+02  0.1145E+03
  11.490  0.1018E+02  0.1146E+03
  11.500  0.8963E+01  0.1147E+03
  11.510  0.8960E+01  0.1148E+03
  11.520  0.7626E+01  0.1149E+03
  11.530  0.7439E+01  0.1150E+03
  11.540  0.6985E+01  0.1150E+03
  11.550  0.7188E+01  0.1151E+03
  11.560  0.7650E+01  0.1152E+03
  11.570  0.6631E+01  0.1152E+03
  11.580  0.6846E+01  0.1153E+03
  11.590  0.6377E+01  0.1154E+03
  11.600  0.6644E+01  0.1154E+03
  11.610  0.6592E+01  0.1155E+03
  11.620  0.6310E+01  0.1156E+03
  11.630  0.6173E+01  0.1156E+03
  11.640  0.6113E+01  0.1157E+03
  11.650  0.6068E+01  0.1158E+03
  11.660  0.6155E+01  0.1158E+03
  11.670  0.6433E+01  0.1159E+03
  11.680  0.6392E+01  0.1160E+03
  11.690  0.6456E+01  0.1160E+03
  11.700  0.6771E+01  0.1161E+03
  11.710  0.6889E+01  0.1162E+03
  11.720  0.6901E+01  0.1162E+03
  11.730  0.6937E+01  0.1163E+03
  11.740  0.7337E+01  0.1164E+03
  11.750  0.7477E+01  0.1164E+03
  11.760  0.7086E+01  0.1165E+03
  11.770  0.6836E+01  0.1166E+03
  11.780  0.6561E+01  0.1166E+03
  11.790  0.6767E+01  0.1167E+03
  11.800  0.7872E+01  0.1168E+03
  11.810  0.6151E+01  0.1168E+03
  11.820  0.6606E+01  0.1169E+03
  11.830  0.6004E+01  0.1170E+03
  11.840  0.6455E+01  0.1170E+03
  11.850  0.6562E+01  0.1171E+03
  11.860  0.7191E+01  0.1172E+03
  11.870  0.6596E+01  0.1172E+03
  11.880  0.6010E+01  0.1173E+03
  11.890  0.6156E+01  0.1174E+03
  11.900  0.6433E+01  0.1174E+03
  11.910  0.6029E+01  0.1175E+03
  11.920  0.6127E+01  0.1175E+03
  11.930  0.6211E+01  0.1176E+03
  11.940  0.5564E+01  0.1177E+03
  11.950  0.5091E+01  0.1177E+03
  11.960  0.5150E+01  0.1178E+03
  11.970  0.5179E+01  0.1178E+03
  11.980  0.5123E+01  0.1179E+03
  11.990  0.5304E+01  0.1179E+03
  12.000  0.5352E+01  0.1180E+03
  12.010  0.5389E+01  0.1180E+03
  12.020  0.5615E+01  0.1181E+03
  12.030  0.5293E+01  0.1182E+03
  12.040  0.5423E+01  0.1182E+03
  12.050  0.5249E+01  0.1183E+03
  12.060  0.5982E+01  0.1183E+03
  12.070  0.4858E+01  0.1184E+03
  12.080  0.4712E+01  0.1184E+03
  12.090  0.5925E+01  0.1185E+03
  12.100  0.5464E+01  0.1185E+03
  12.110  0.5459E+01  0.1186E+03
  12.120  0.5084E+01  0.1186E+03
  12.130  0.4451E+01  0.1187E+03
  12.140  0.4334E+01  0.1187E+03
  12.150  0.4294E+01  0.1188E+03
  12.160  0.4482E+01  0.1188E+03
  12.170  0.4461E+01  0.1188E+03
  12.180  0.4386E+01  0.1189E+03
  12.190  0.3760E+01  0.1189E+03
  12.200  0.3684E+01  0.1190E+03
  12.210  0.3520E+01  0.1190E+03
  12.220  0.3371E+01  0.1190E+03
  12.230  0.3434E+01  0.1191E+03
  12.240  0.3193E+01  0.1191E+03
  12.250  0.3138E+01  0.1191E+03
  12.260  0.3120E+01  0.1192E+03
  12.270  0.3498E+01  0.1192E+03
  12.280  0.3066E+01  0.1192E+03
  12.290  0.3073E+01  0.1193E+03
  12.300  0.3491E+01  0.1193E+03
  12.310  0.2893E+01  0.1193E+03
  12.320  0.2787E+01  0.1194E+03
  12.330  0.3062E+01  0.1194E+03
  12.340  0.3019E+01  0.1194E+03
  12.350  0.2542E+01  0.1194E+03
  12.360  0.2481E+01  0.1195E+03
  12.370  0.2300E+01  0.1195E+03
  12.380  0.2120E+01  0.1195E+03
  12.390  0.2036E+01  0.1195E+03
  12.400  0.2030E+01  0.1196E+03
  12.410  0.1901E+01  0.1196E+03
  12.420  0.2120E+01  0.1196E+03
  12.430  0.1763E+01  0.1196E+03
  12.440  0.1636E+01  0.1196E+03
  12.450  0.1668E+01  0.1197E+03
  12.460  0.1722E+01  0.1197E+03
  12.470  0.1755E+01  0.1197E+03
  12.480  0.1794E+01  0.1197E+03
  12.490  0.1645E+01  0.1197E+03
  12.500  0.1456E+01  0.1197E+03
  12.510  0.1373E+01  0.1198E+03
  12.520  0.1384E+01  0.1198E+03
  12.530  0.1412E+01  0.1198E+03
  12.540  0.1377E+01  0.1198E+03
  12.550  0.1250E+01  0.1198E+03
  12.560  0.1206E+01  0.1198E+03
  12.570  0.1180E+01  0.1198E+03
  12.580  0.1186E+01  0.1198E+03
  12.590  0.1184E+01  0.1199E+03
  12.600  0.1003E+01  0.1199E+03
  12.610  0.9087E+00  0.1199E+03
  12.620  0.9437E+00  0.1199E+03
  12.630  0.9523E+00  0.1199E+03
  12.640  0.9133E+00  0.1199E+03
  12.650  0.8774E+00  0.1199E+03
  12.660  0.7611E+00  0.1199E+03
  12.670  0.7700E+00  0.1199E+03
  12.680  0.6799E+00  0.1199E+03
  12.690  0.5973E+00  0.1199E+03
  12.700  0.5433E+00  0.1199E+03
  12.710  0.5315E+00  0.1200E+03
  12.720  0.4590E+00  0.1200E+03
  12.730  0.4840E+00  0.1200E+03
  12.740  0.4472E+00  0.1200E+03
  12.750  0.3038E+00  0.1200E+03
  12.760  0.2855E+00  0.1200E+03
  12.770  0.2671E+00  0.1200E+03
  12.780  0.2739E+00  0.1200E+03
  12.790  0.2568E+00  0.1200E+03
  12.800  0.2092E+00  0.1200E+03
  12.810  0.1986E+00  0.1200E+03
  12.820  0.1881E+00  0.1200E+03
  12.830  0.1775E+00  0.1200E+03
  12.840  0.1670E+00  0.1200E+03
  12.850  0.1564E+00  0.1200E+03
  12.860  0.2122E+00  0.1200E+03
  12.870  0.1873E+00  0.1200E+03
  12.880  0.5808E-01  0.1200E+03
  12.890  0.4589E-01  0.1200E+03
  12.900  0.3370E-01  0.1200E+03
  12.910  0.0000E+00  0.1200E+03
  12.920  0.0000E+00  0.1200E+03
  12.930  0.0000E+00  0.1200E+03
  12.940  0.0000E+00  0.1200E+03
  12.950  0.0000E+00  0.1200E+03
  12.960  0.0000E+00  0.1200E+03
  12.970  0.0000E+00  0.1200E+03
  12.980  0.0000E+00  0.1200E+03
  12.990  0.0000E+00  0.1200E+03
  13.000  0.0000E+00  0.1200E+03
  13.010  0.0000E+00  0.1200E+03
  13.020  0.0000E+00  0.1200E+03
  13.030  0.0000E+00  0.1200E+03
  13.040  0.0000E+00  0.1200E+03
  13.050  0.0000E+00  0.1200E+03
  13.060  0.0000E+00  0.1200E+03
  13.070  0.0000E+00  0.1200E+03
  13.080  0.0000E+00  0.1200E+03
  13.090  0.0000E+00  0.1200E+03
  13.100  0.0000E+00  0.1200E+03
  13.110  0.0000E+00  0.1200E+03
  13.120  0.0000E+00  0.1200E+03
  13.130  0.0000E+00  0.1200E+03
  13.140  0.0000E+00  0.1200E+03
  13.150  0.0000E+00  0.1200E+03
  13.160  0.0000E+00  0.1200E+03
  13.170  0.0000E+00  0.1200E+03
  13.180  0.0000E+00  0.1200E+03
  13.190  0.0000E+00  0.1200E+03
  13.200  0.0000E+00  0.1200E+03
  13.210  0.0000E+00  0.1200E+03
  13.220  0.0000E+00  0.1200E+03
  13.230  0.0000E+00  0.1200E+03
  13.240  0.0000E+00  0.1200E+03
  13.250  0.0000E+00  0.1200E+03
  13.260  0.0000E+00  0.1200E+03
  13.270  0.0000E+00  0.1200E+03
  13.280  0.0000E+00  0.1200E+03
  13.290  0.0000E+00  0.1200E+03
  13.300  0.0000E+00  0.1200E+03
  13.310  0.0000E+00  0.1200E+03
  13.320  0.0000E+00  0.1200E+03
  13.330  0.0000E+00  0.1200E+03
  13.340  0.0000E+00  0.1200E+03
  13.350  0.0000E+00  0.1200E+03
  13.360  0.0000E+00  0.1200E+03
  13.370  0.0000E+00  0.1200E+03
  13.380  0.0000E+00  0.1200E+03
  13.390  0.0000E+00  0.1200E+03
  13.400  0.0000E+00  0.1200E+03
  13.410  0.0000E+00  0.1200E+03
  13.420  0.0000E+00  0.1200E+03
  13.430  0.0000E+00  0.1200E+03
  13.440  0.0000E+00  0.1200E+03
  13.450  0.0000E+00  0.1200E+03
  13.460  0.0000E+00  0.1200E+03
  13.470  0.0000E+00  0.1200E+03
  13.480  0.0000E+00  0.1200E+03
  13.490  0.0000E+00  0.1200E+03
  13.500  0.0000E+00  0.1200E+03
  13.510  0.0000E+00  0.1200E+03
  13.520  0.0000E+00  0.1200E+03
  13.530  0.0000E+00  0.1200E+03
  13.540  0.0000E+00  0.1200E+03
  13.550  0.0000E+00  0.1200E+03
  13.560  0.0000E+00  0.1200E+03
  13.570  0.0000E+00  0.1200E+03
  13.580  0.0000E+00  0.1200E+03
  13.590  0.0000E+00  0.1200E+03
  13.600  0.0000E+00  0.1200E+03
  13.610  0.0000E+00  0.1200E+03
  13.620  0.0000E+00  0.1200E+03
  13.630  0.0000E+00  0.1200E+03
  13.640  0.0000E+00  0.1200E+03
  13.650  0.0000E+00  0.1200E+03
  13.660  0.0000E+00  0.1200E+03
  13.670  0.0000E+00  0.1200E+03
  13.680  0.0000E+00  0.1200E+03
  13.690  0.0000E+00  0.1200E+03
  13.700  0.0000E+00  0.1200E+03
  13.710  0.0000E+00  0.1200E+03
  13.720  0.0000E+00  0.1200E+03
  13.730  0.0000E+00  0.1200E+03
  13.740  0.0000E+00  0.1200E+03
  13.750  0.0000E+00  0.1200E+03
  13.760  0.0000E+00  0.1200E+03
  13.770  0.0000E+00  0.1200E+03
  13.780  0.0000E+00  0.1200E+03
  13.790  0.0000E+00  0.1200E+03
  13.800  0.0000E+00  0.1200E+03
  13.810  0.0000E+00  0.1200E+03
  13.820  0.0000E+00  0.1200E+03
  13.830  0.0000E+00  0.1200E+03
  13.840  0.0000E+00  0.1200E+03
  13.850  0.0000E+00  0.1200E+03
  13.860  0.0000E+00  0.1200E+03
  13.870  0.0000E+00  0.1200E+03
  13.880  0.0000E+00  0.1200E+03
  13.890  0.0000E+00  0.1200E+03
  13.900  0.0000E+00  0.1200E+03
  13.910  0.0000E+00  0.1200E+03
  13.920  0.0000E+00  0.1200E+03
  13.930  0.0000E+00  0.1200E+03
  13.940  0.0000E+00  0.1200E+03
  13.950  0.0000E+00  0.1200E+03
  13.960  0.0000E+00  0.1200E+03
  13.970  0.0000E+00  0.1200E+03
  13.980  0.0000E+00  0.1200E+03
  13.990  0.0000E+00  0.1200E+03
  14.000  0.0000E+00  0.1200E+03
  14.010  0.0000E+00  0.1200E+03
  14.020  0.0000E+00  0.1200E+03
  14.030  0.0000E+00  0.1200E+03
  14.040  0.0000E+00  0.1200E+03
  14.050  0.0000E+00  0.1200E+03
  14.060  0.0000E+00  0.1200E+03
  14.070  0.0000E+00  0.1200E+03
  14.080  0.0000E+00  0.1200E+03
  14.090  0.0000E+00  0.1200E+03
  14.100  0.0000E+00  0.1200E+03
  14.110  0.0000E+00  0.1200E+03
  14.120  0.0000E+00  0.1200E+03
  14.130  0.0000E+00  0.1200E+03
  14.140  0.0000E+00  0.1200E+03
  14.150  0.0000E+00  0.1200E+03
  14.160  0.0000E+00  0.1200E+03
  14.170  0.0000E+00  0.1200E+03
  14.180  0.0000E+00  0.1200E+03
  14.190  0.0000E+00  0.1200E+03
  14.200  0.0000E+00  0.1200E+03
  14.210  0.0000E+00  0.1200E+03
  14.220  0.0000E+00  0.1200E+03
  14.230  0.0000E+00  0.1200E+03
  14.240  0.0000E+00  0.1200E+03
  14.250  0.0000E+00  0.1200E+03
  14.260  0.0000E+00  0.1200E+03
  14.270  0.0000E+00  0.1200E+03
  14.280  0.0000E+00  0.1200E+03
  14.290  0.0000E+00  0.1200E+03
  14.300  0.0000E+00  0.1200E+03
  14.310  0.0000E+00  0.1200E+03
  14.320  0.0000E+00  0.1200E+03
  14.330  0.0000E+00  0.1200E+03
  14.340  0.0000E+00  0.1200E+03
  14.350  0.0000E+00  0.1200E+03
  14.360  0.0000E+00  0.1200E+03
  14.370  0.0000E+00  0.1200E+03
  14.380  0.0000E+00  0.1200E+03
  14.390  0.0000E+00  0.1200E+03
  14.400  0.0000E+00  0.1200E+03
  14.410  0.0000E+00  0.1200E+03
  14.420  0.0000E+00  0.1200E+03
  14.430  0.0000E+00  0.1200E+03
  14.440  0.0000E+00  0.1200E+03
  14.450  0.0000E+00  0.1200E+03
  14.460  0.0000E+00  0.1200E+03
  14.470  0.0000E+00  0.1200E+03
  14.480  0.0000E+00  0.1200E+03
  14.490  0.0000E+00  0.1200E+03
  14.500  0.0000E+00  0.1200E+03
  14.510  0.0000E+00  0.1200E+03
  14.520  0.0000E+00  0.1200E+03
  14.530  0.0000E+00  0.1200E+03
  14.540  0.0000E+00  0.1200E+03
  14.550  0.0000E+00  0.1200E+03
  14.560  0.0000E+00  0.1200E+03
  14.570  0.0000E+00  0.1200E+03
  14.580  0.0000E+00  0.1200E+03
  14.590  0.0000E+00  0.1200E+03
  14.600  0.0000E+00  0.1200E+03
  14.610  0.0000E+00  0.1200E+03
  14.620  0.0000E+00  0.1200E+03
  14.630  0.0000E+00  0.1200E+03
  14.640  0.0000E+00  0.1200E+03
  14.650  0.0000E+00  0.1200E+03
  14.660  0.0000E+00  0.1200E+03
  14.670  0.0000E+00  0.1200E+03
  14.680  0.0000E+00  0.1200E+03
  14.690  0.0000E+00  0.1200E+03
  14.700  0.0000E+00  0.1200E+03
  14.710  0.0000E+00  0.1200E+03
  14.720  0.0000E+00  0.1200E+03
  14.730  0.0000E+00  0.1200E+03
  14.740  0.0000E+00  0.1200E+03
  14.750  0.0000E+00  0.1200E+03
  14.760  0.0000E+00  0.1200E+03
  14.770  0.0000E+00  0.1200E+03
  14.780  0.0000E+00  0.1200E+03
  14.790  0.0000E+00  0.1200E+03
  14.800  0.0000E+00  0.1200E+03
  14.810  0.0000E+00  0.1200E+03
  14.820  0.0000E+00  0.1200E+03
  14.830  0.0000E+00  0.1200E+03
  14.840  0.0000E+00  0.1200E+03
  14.850  0.0000E+00  0.1200E+03
  14.860  0.0000E+00  0.1200E+03
  14.870  0.0000E+00  0.1200E+03
  14.880  0.0000E+00  0.1200E+03
  14.890  0.0000E+00  0.1200E+03
  14.900  0.0000E+00  0.1200E+03
  14.910  0.0000E+00  0.1200E+03
  14.920  0.0000E+00  0.1200E+03
  14.930  0.0000E+00  0.1200E+03
  14.940  0.0000E+00  0.1200E+03
  14.950  0.0000E+00  0.1200E+03
  14.960  0.0000E+00  0.1200E+03
  14.970  0.0000E+00  0.1200E+03
  14.980  0.0000E+00  0.1200E+03
  14.990  0.0000E+00  0.1200E+03
  15.000  0.0000E+00  0.1200E+03
  15.010  0.0000E+00  0.1200E+03
  15.020  0.0000E+00  0.1200E+03
  15.030  0.0000E+00  0.1200E+03
  15.040  0.0000E+00  0.1200E+03
  15.050  0.0000E+00  0.1200E+03
  15.060  0.0000E+00  0.1200E+03
  15.070  0.0000E+00  0.1200E+03
  15.080  0.0000E+00  0.1200E+03
  15.090  0.0000E+00  0.1200E+03
  15.100  0.0000E+00  0.1200E+03
  15.110  0.0000E+00  0.1200E+03
  15.120  0.0000E+00  0.1200E+03
  15.130  0.0000E+00  0.1200E+03
  15.140  0.0000E+00  0.1200E+03
  15.150  0.0000E+00  0.1200E+03
  15.160  0.0000E+00  0.1200E+03
  15.170  0.0000E+00  0.1200E+03
  15.180  0.0000E+00  0.1200E+03
  15.190  0.0000E+00  0.1200E+03
  15.200  0.0000E+00  0.1200E+03
  15.210  0.0000E+00  0.1200E+03
  15.220  0.0000E+00  0.1200E+03
  15.230  0.0000E+00  0.1200E+03
  15.240  0.0000E+00  0.1200E+03
  15.250  0.0000E+00  0.1200E+03
  15.260  0.0000E+00  0.1200E+03
  15.270  0.0000E+00  0.1200E+03
  15.280  0.0000E+00  0.1200E+03
  15.290  0.0000E+00  0.1200E+03
  15.300  0.0000E+00  0.1200E+03
  15.310  0.0000E+00  0.1200E+03
  15.320  0.0000E+00  0.1200E+03
  15.330  0.0000E+00  0.1200E+03
  15.340  0.0000E+00  0.1200E+03
  15.350  0.0000E+00  0.1200E+03
  15.360  0.0000E+00  0.1200E+03
  15.370  0.0000E+00  0.1200E+03
  15.380  0.0000E+00  0.1200E+03
  15.390  0.0000E+00  0.1200E+03
  15.400  0.0000E+00  0.1200E+03
  15.410  0.0000E+00  0.1200E+03
  15.420  0.0000E+00  0.1200E+03
  15.430  0.0000E+00  0.1200E+03
  15.440  0.0000E+00  0.1200E+03
  15.450  0.0000E+00  0.1200E+03
  15.460  0.0000E+00  0.1200E+03
  15.470  0.0000E+00  0.1200E+03
  15.480  0.0000E+00  0.1200E+03
  15.490  0.0000E+00  0.1200E+03
  15.500  0.0000E+00  0.1200E+03
  15.510  0.0000E+00  0.1200E+03
  15.520  0.0000E+00  0.1200E+03
  15.530  0.0000E+00  0.1200E+03
  15.540  0.0000E+00  0.1200E+03
  15.550  0.0000E+00  0.1200E+03
  15.560  0.0000E+00  0.1200E+03
  15.570  0.0000E+00  0.1200E+03
  15.580  0.0000E+00  0.1200E+03
  15.590  0.0000E+00  0.1200E+03
  15.600  0.0000E+00  0.1200E+03
  15.610  0.0000E+00  0.1200E+03
  15.620  0.0000E+00  0.1200E+03
  15.630  0.0000E+00  0.1200E+03
  15.640  0.0000E+00  0.1200E+03
  15.650  0.0000E+00  0.1200E+03
  15.660  0.0000E+00  0.1200E+03
  15.670  0.0000E+00  0.1200E+03
  15.680  0.0000E+00  0.1200E+03
  15.690  0.0000E+00  0.1200E+03
  15.700  0.0000E+00  0.1200E+03
  15.710  0.0000E+00  0.1200E+03
  15.720  0.0000E+00  0.1200E+03
  15.730  0.0000E+00  0.1200E+03
  15.740  0.0000E+00  0.1200E+03
  15.750  0.0000E+00  0.1200E+03
  15.760  0.0000E+00  0.1200E+03
  15.770  0.0000E+00  0.1200E+03
  15.780  0.0000E+00  0.1200E+03
  15.790  0.0000E+00  0.1200E+03
  15.800  0.0000E+00  0.1200E+03
  15.810  0.0000E+00  0.1200E+03
  15.820  0.0000E+00  0.1200E+03
  15.830  0.0000E+00  0.1200E+03
  15.840  0.0000E+00  0.1200E+03
  15.850  0.0000E+00  0.1200E+03
  15.860  0.0000E+00  0.1200E+03
  15.870  0.0000E+00  0.1200E+03
  15.880  0.0000E+00  0.1200E+03
  15.890  0.0000E+00  0.1200E+03
  15.900  0.0000E+00  0.1200E+03
  15.910  0.0000E+00  0.1200E+03
  15.920  0.0000E+00  0.1200E+03
  15.930  0.0000E+00  0.1200E+03
  15.940  0.0000E+00  0.1200E+03
  15.950  0.0000E+00  0.1200E+03
  15.960  0.0000E+00  0.1200E+03
  15.970  0.0000E+00  0.1200E+03
  15.980  0.0000E+00  0.1200E+03
  15.990  0.0000E+00  0.1200E+03
  16.000  0.0000E+00  0.1200E+03
  16.010  0.0000E+00  0.1200E+03
  16.020  0.0000E+00  0.1200E+03
  16.030  0.0000E+00  0.1200E+03
  16.040  0.0000E+00  0.1200E+03
  16.050  0.0000E+00  0.1200E+03
  16.060  0.0000E+00  0.1200E+03
  16.070  0.0000E+00  0.1200E+03
  16.080  0.0000E+00  0.1200E+03
  16.090  0.0000E+00  0.1200E+03
  16.100  0.0000E+00  0.1200E+03
  16.110  0.0000E+00  0.1200E+03
  16.120  0.0000E+00  0.1200E+03
  16.130  0.0000E+00  0.1200E+03
  16.140  0.0000E+00  0.1200E+03
  16.150  0.0000E+00  0.1200E+03
  16.160  0.0000E+00  0.1200E+03
  16.170  0.0000E+00  0.1200E+03
  16.180  0.0000E+00  0.1200E+03
  16.190  0.0000E+00  0.1200E+03
  16.200  0.0000E+00  0.1200E+03
  16.210  0.0000E+00  0.1200E+03
  16.220  0.0000E+00  0.1200E+03
  16.230  0.0000E+00  0.1200E+03
  16.240  0.0000E+00  0.1200E+03
  16.250  0.0000E+00  0.1200E+03
  16.260  0.0000E+00  0.1200E+03
  16.270  0.0000E+00  0.1200E+03
  16.280  0.0000E+00  0.1200E+03
  16.290  0.0000E+00  0.1200E+03
  16.300  0.0000E+00  0.1200E+03
  16.310  0.0000E+00  0.1200E+03
  16.320  0.0000E+00  0.1200E+03
  16.330  0.0000E+00  0.1200E+03
  16.340  0.0000E+00  0.1200E+03
  16.350  0.0000E+00  0.1200E+03
  16.360  0.0000E+00  0.1200E+03
  16.370  0.0000E+00  0.1200E+03
  16.380  0.0000E+00  0.1200E+03
  16.390  0.0000E+00  0.1200E+03
  16.400  0.0000E+00  0.1200E+03
  16.410  0.0000E+00  0.1200E+03
  16.420  0.0000E+00  0.1200E+03
  16.430  0.0000E+00  0.1200E+03
  16.440  0.0000E+00  0.1200E+03
  16.450  0.0000E+00  0.1200E+03
  16.460  0.0000E+00  0.1200E+03
  16.470  0.0000E+00  0.1200E+03
  16.480  0.0000E+00  0.1200E+03
  16.490  0.0000E+00  0.1200E+03
  16.500  0.0000E+00  0.1200E+03
  16.510  0.0000E+00  0.1200E+03
  16.520  0.0000E+00  0.1200E+03
  16.530  0.0000E+00  0.1200E+03
  16.540  0.0000E+00  0.1200E+03
  16.550  0.0000E+00  0.1200E+03
  16.560  0.0000E+00  0.1200E+03
  16.570  0.0000E+00  0.1200E+03
  16.580  0.0000E+00  0.1200E+03
  16.590  0.0000E+00  0.1200E+03
  16.600  0.0000E+00  0.1200E+03
  16.610  0.0000E+00  0.1200E+03
  16.620  0.0000E+00  0.1200E+03
  16.630  0.0000E+00  0.1200E+03
  16.640  0.0000E+00  0.1200E+03
  16.650  0.0000E+00  0.1200E+03
  16.660  0.0000E+00  0.1200E+03
  16.670  0.0000E+00  0.1200E+03
  16.680  0.0000E+00  0.1200E+03
  16.690  0.0000E+00  0.1200E+03
  16.700  0.0000E+00  0.1200E+03
  16.710  0.0000E+00  0.1200E+03
  16.720  0.0000E+00  0.1200E+03
  16.730  0.0000E+00  0.1200E+03
  16.740  0.0000E+00  0.1200E+03
  16.750  0.0000E+00  0.1200E+03
  16.760  0.0000E+00  0.1200E+03
  16.770  0.0000E+00  0.1200E+03
  16.780  0.0000E+00  0.1200E+03
  16.790  0.0000E+00  0.1200E+03
  16.800  0.0000E+00  0.1200E+03
  16.810  0.0000E+00  0.1200E+03
  16.820  0.0000E+00  0.1200E+03
  16.830  0.0000E+00  0.1200E+03
  16.840  0.0000E+00  0.1200E+03
  16.850  0.0000E+00  0.1200E+03
  16.860  0.0000E+00  0.1200E+03
  16.870  0.0000E+00  0.1200E+03
  16.880  0.0000E+00  0.1200E+03
  16.890  0.0000E+00  0.1200E+03
  16.900  0.0000E+00  0.1200E+03
  16.910  0.0000E+00  0.1200E+03
  16.920  0.0000E+00  0.1200E+03
  16.930  0.0000E+00  0.1200E+03
  16.940  0.0000E+00  0.1200E+03
  16.950  0.0000E+00  0.1200E+03
  16.960  0.0000E+00  0.1200E+03
  16.970  0.0000E+00  0.1200E+03
  16.980  0.0000E+00  0.1200E+03
  16.990  0.0000E+00  0.1200E+03
  17.000  0.0000E+00  0.1200E+03
  17.010  0.0000E+00  0.1200E+03
  17.020  0.0000E+00  0.1200E+03
  17.030  0.0000E+00  0.1200E+03
  17.040  0.0000E+00  0.1200E+03
  17.050  0.0000E+00  0.1200E+03
  17.060  0.0000E+00  0.1200E+03
  17.070  0.0000E+00  0.1200E+03
  17.080  0.0000E+00  0.1200E+03
  17.090  0.0000E+00  0.1200E+03
  17.100  0.0000E+00  0.1200E+03
  17.110  0.0000E+00  0.1200E+03
  17.120  0.0000E+00  0.1200E+03
  17.130  0.0000E+00  0.1200E+03
  17.140  0.0000E+00  0.1200E+03
  17.150  0.0000E+00  0.1200E+03
  17.160  0.0000E+00  0.1200E+03
  17.170  0.0000E+00  0.1200E+03
  17.180  0.0000E+00  0.1200E+03
  17.190  0.0000E+00  0.1200E+03
  17.200  0.0000E+00  0.1200E+03
  17.210  0.0000E+00  0.1200E+03
  17.220  0.0000E+00  0.1200E+03
  17.230  0.0000E+00  0.1200E+03
  17.240  0.0000E+00  0.1200E+03
  17.250  0.0000E+00  0.1200E+03
  17.260  0.0000E+00  0.1200E+03
  17.270  0.0000E+00  0.1200E+03
  17.280  0.0000E+00  0.1200E+03
  17.290  0.0000E+00  0.1200E+03
  17.300  0.0000E+00  0.1200E+03
  17.310  0.0000E+00  0.1200E+03
  17.320  0.0000E+00  0.1200E+03
  17.330  0.0000E+00  0.1200E+03
  17.340  0.0000E+00  0.1200E+03
  17.350  0.0000E+00  0.1200E+03
  17.360  0.0000E+00  0.1200E+03
  17.370  0.0000E+00  0.1200E+03
  17.380  0.0000E+00  0.1200E+03
  17.390  0.0000E+00  0.1200E+03
  17.400  0.0000E+00  0.1200E+03
  17.410  0.0000E+00  0.1200E+03
  17.420  0.0000E+00  0.1200E+03
  17.430  0.0000E+00  0.1200E+03
  17.440  0.0000E+00  0.1200E+03
  17.450  0.0000E+00  0.1200E+03
  17.460  0.0000E+00  0.1200E+03
  17.470  0.0000E+00  0.1200E+03
  17.480  0.0000E+00  0.1200E+03
  17.490  0.0000E+00  0.1200E+03
  17.500  0.0000E+00  0.1200E+03
  17.510  0.0000E+00  0.1200E+03
  17.520  0.0000E+00  0.1200E+03
  17.530  0.0000E+00  0.1200E+03
  17.540  0.0000E+00  0.1200E+03
  17.550  0.0000E+00  0.1200E+03
  17.560  0.0000E+00  0.1200E+03
  17.570  0.0000E+00  0.1200E+03
  17.580  0.0000E+00  0.1200E+03
  17.590  0.0000E+00  0.1200E+03
  17.600  0.0000E+00  0.1200E+03
  17.610  0.0000E+00  0.1200E+03
  17.620  0.0000E+00  0.1200E+03
  17.630  0.0000E+00  0.1200E+03
  17.640  0.0000E+00  0.1200E+03
  17.650  0.0000E+00  0.1200E+03
  17.660  0.0000E+00  0.1200E+03
  17.670  0.0000E+00  0.1200E+03
  17.680  0.0000E+00  0.1200E+03
  17.690  0.0000E+00  0.1200E+03
  17.700  0.0000E+00  0.1200E+03
  17.710  0.0000E+00  0.1200E+03
  17.720  0.0000E+00  0.1200E+03
  17.730  0.0000E+00  0.1200E+03
  17.740  0.0000E+00  0.1200E+03
  17.750  0.0000E+00  0.1200E+03
  17.760  0.0000E+00  0.1200E+03
  17.770  0.0000E+00  0.1200E+03
  17.780  0.0000E+00  0.1200E+03
  17.790  0.0000E+00  0.1200E+03
  17.800  0.0000E+00  0.1200E+03
  17.810  0.0000E+00  0.1200E+03
  17.820  0.0000E+00  0.1200E+03
  17.830  0.0000E+00  0.1200E+03
  17.840  0.0000E+00  0.1200E+03
  17.850  0.0000E+00  0.1200E+03
  17.860  0.0000E+00  0.1200E+03
  17.870  0.0000E+00  0.1200E+03
  17.880  0.0000E+00  0.1200E+03
  17.890  0.0000E+00  0.1200E+03
  17.900  0.0000E+00  0.1200E+03
  17.910  0.0000E+00  0.1200E+03
  17.920  0.0000E+00  0.1200E+03
  17.930  0.0000E+00  0.1200E+03
  17.940  0.0000E+00  0.1200E+03
  17.950  0.0000E+00  0.1200E+03
  17.960  0.0000E+00  0.1200E+03
  17.970  0.0000E+00  0.1200E+03
  17.980  0.0000E+00  0.1200E+03
  17.990  0.0000E+00  0.1200E+03
  18.000  0.0000E+00  0.1200E+03
  18.010  0.0000E+00  0.1200E+03
  18.020  0.0000E+00  0.1200E+03
  18.030  0.0000E+00  0.1200E+03
  18.040  0.0000E+00  0.1200E+03
  18.050  0.0000E+00  0.1200E+03
  18.060  0.0000E+00  0.1200E+03
  18.070  0.0000E+00  0.1200E+03
  18.080  0.0000E+00  0.1200E+03
  18.090  0.0000E+00  0.1200E+03
  18.100  0.0000E+00  0.1200E+03
  18.110  0.0000E+00  0.1200E+03
  18.120  0.0000E+00  0.1200E+03
  18.130  0.0000E+00  0.1200E+03
  18.140  0.0000E+00  0.1200E+03
  18.150  0.0000E+00  0.1200E+03
  18.160  0.0000E+00  0.1200E+03
  18.170  0.0000E+00  0.1200E+03
  18.180  0.0000E+00  0.1200E+03
  18.190  0.0000E+00  0.1200E+03
  18.200  0.0000E+00  0.1200E+03
  18.210  0.0000E+00  0.1200E+03
  18.220  0.0000E+00  0.1200E+03
  18.230  0.0000E+00  0.1200E+03
  18.240  0.0000E+00  0.1200E+03
  18.250  0.0000E+00  0.1200E+03
  18.260  0.0000E+00  0.1200E+03
  18.270  0.0000E+00  0.1200E+03
  18.280  0.0000E+00  0.1200E+03
  18.290  0.0000E+00  0.1200E+03
  18.300  0.0000E+00  0.1200E+03
  18.310  0.0000E+00  0.1200E+03
  18.320  0.0000E+00  0.1200E+03
  18.330  0.0000E+00  0.1200E+03
  18.340  0.0000E+00  0.1200E+03
  18.350  0.0000E+00  0.1200E+03
  18.360  0.0000E+00  0.1200E+03
  18.370  0.0000E+00  0.1200E+03
  18.380  0.0000E+00  0.1200E+03
  18.390  0.0000E+00  0.1200E+03
  18.400  0.0000E+00  0.1200E+03
  18.410  0.0000E+00  0.1200E+03
  18.420  0.0000E+00  0.1200E+03
  18.430  0.0000E+00  0.1200E+03
  18.440  0.0000E+00  0.1200E+03
  18.450  0.0000E+00  0.1200E+03
  18.460  0.0000E+00  0.1200E+03
  18.470  0.0000E+00  0.1200E+03
  18.480  0.0000E+00  0.1200E+03
  18.490  0.0000E+00  0.1200E+03
  18.500  0.0000E+00  0.1200E+03
  18.510  0.0000E+00  0.1200E+03
  18.520  0.0000E+00  0.1200E+03
  18.530  0.0000E+00  0.1200E+03
  18.540  0.0000E+00  0.1200E+03
  18.550  0.0000E+00  0.1200E+03
  18.560  0.0000E+00  0.1200E+03
  18.570  0.0000E+00  0.1200E+03
  18.580  0.0000E+00  0.1200E+03
  18.590  0.0000E+00  0.1200E+03
  18.600  0.0000E+00  0.1200E+03
  18.610  0.0000E+00  0.1200E+03
  18.620  0.0000E+00  0.1200E+03
  18.630  0.0000E+00  0.1200E+03
  18.640  0.0000E+00  0.1200E+03
  18.650  0.0000E+00  0.1200E+03
  18.660  0.0000E+00  0.1200E+03
  18.670  0.0000E+00  0.1200E+03
  18.680  0.0000E+00  0.1200E+03
  18.690  0.0000E+00  0.1200E+03
  18.700  0.0000E+00  0.1200E+03
  18.710  0.0000E+00  0.1200E+03
  18.720  0.0000E+00  0.1200E+03
  18.730  0.0000E+00  0.1200E+03
  18.740  0.0000E+00  0.1200E+03
  18.750  0.0000E+00  0.1200E+03
  18.760  0.0000E+00  0.1200E+03
  18.770  0.0000E+00  0.1200E+03
  18.780  0.0000E+00  0.1200E+03
  18.790  0.0000E+00  0.1200E+03
  18.800  0.0000E+00  0.1200E+03
  18.810  0.0000E+00  0.1200E+03
  18.820  0.0000E+00  0.1200E+03
  18.830  0.0000E+00  0.1200E+03
  18.840  0.0000E+00  0.1200E+03
  18.850  0.0000E+00  0.1200E+03
  18.860  0.0000E+00  0.1200E+03
  18.870  0.0000E+00  0.1200E+03
  18.880  0.0000E+00  0.1200E+03
  18.890  0.0000E+00  0.1200E+03
  18.900  0.0000E+00  0.1200E+03
  18.910  0.0000E+00  0.1200E+03
  18.920  0.0000E+00  0.1200E+03
  18.930  0.0000E+00  0.1200E+03
  18.940  0.0000E+00  0.1200E+03
  18.950  0.0000E+00  0.1200E+03
  18.960  0.0000E+00  0.1200E+03
  18.970  0.0000E+00  0.1200E+03
  18.980  0.0000E+00  0.1200E+03
  18.990  0.0000E+00  0.1200E+03
  19.000  0.0000E+00  0.1200E+03
  19.010  0.0000E+00  0.1200E+03
  19.020  0.0000E+00  0.1200E+03
  19.030  0.0000E+00  0.1200E+03
  19.040  0.0000E+00  0.1200E+03
  19.050  0.0000E+00  0.1200E+03
  19.060  0.0000E+00  0.1200E+03
  19.070  0.0000E+00  0.1200E+03
  19.080  0.0000E+00  0.1200E+03
  19.090  0.0000E+00  0.1200E+03
  19.100  0.0000E+00  0.1200E+03
  19.110  0.0000E+00  0.1200E+03
  19.120  0.0000E+00  0.1200E+03
  19.130  0.0000E+00  0.1200E+03
  19.140  0.0000E+00  0.1200E+03
  19.150  0.0000E+00  0.1200E+03
  19.160  0.0000E+00  0.1200E+03
  19.170  0.0000E+00  0.1200E+03
  19.180  0.0000E+00  0.1200E+03
  19.190  0.0000E+00  0.1200E+03
  19.200  0.0000E+00  0.1200E+03
  19.210  0.0000E+00  0.1200E+03
  19.220  0.0000E+00  0.1200E+03
  19.230  0.0000E+00  0.1200E+03
  19.240  0.0000E+00  0.1200E+03
  19.250  0.0000E+00  0.1200E+03
  19.260  0.0000E+00  0.1200E+03
  19.270  0.0000E+00  0.1200E+03
  19.280  0.0000E+00  0.1200E+03
  19.290  0.0000E+00  0.1200E+03
  19.300  0.0000E+00  0.1200E+03
  19.310  0.0000E+00  0.1200E+03
  19.320  0.0000E+00  0.1200E+03
  19.330  0.0000E+00  0.1200E+03
  19.340  0.0000E+00  0.1200E+03
  19.350  0.0000E+00  0.1200E+03
  19.360  0.0000E+00  0.1200E+03
  19.370  0.0000E+00  0.1200E+03
  19.380  0.0000E+00  0.1200E+03
  19.390  0.0000E+00  0.1200E+03
  19.400  0.0000E+00  0.1200E+03
  19.410  0.0000E+00  0.1200E+03
  19.420  0.0000E+00  0.1200E+03
  19.430  0.0000E+00  0.1200E+03
  19.440  0.0000E+00  0.1200E+03
  19.450  0.0000E+00  0.1200E+03
  19.460  0.0000E+00  0.1200E+03
  19.470  0.0000E+00  0.1200E+03
  19.480  0.0000E+00  0.1200E+03
  19.490  0.0000E+00  0.1200E+03
  19.500  0.0000E+00  0.1200E+03
  19.510  0.0000E+00  0.1200E+03
  19.520  0.0000E+00  0.1200E+03
  19.530  0.0000E+00  0.1200E+03
  19.540  0.0000E+00  0.1200E+03
  19.550  0.0000E+00  0.1200E+03
  19.560  0.0000E+00  0.1200E+03
  19.570  0.0000E+00  0.1200E+03
  19.580  0.0000E+00  0.1200E+03
  19.590  0.0000E+00  0.1200E+03
  19.600  0.0000E+00  0.1200E+03
  19.610  0.0000E+00  0.1200E+03
  19.620  0.0000E+00  0.1200E+03
  19.630  0.0000E+00  0.1200E+03
  19.640  0.0000E+00  0.1200E+03
  19.650  0.0000E+00  0.1200E+03
  19.660  0.0000E+00  0.1200E+03
  19.670  0.0000E+00  0.1200E+03
  19.680  0.0000E+00  0.1200E+03
  19.690  0.0000E+00  0.1200E+03
  19.700  0.0000E+00  0.1200E+03
  19.710  0.0000E+00  0.1200E+03
  19.720  0.0000E+00  0.1200E+03
  19.730  0.0000E+00  0.1200E+03
  19.740  0.0000E+00  0.1200E+03
  19.750  0.0000E+00  0.1200E+03
  19.760  0.0000E+00  0.1200E+03
  19.770  0.0000E+00  0.1200E+03
  19.780  0.0000E+00  0.1200E+03
  19.790  0.0000E+00  0.1200E+03
  19.800  0.0000E+00  0.1200E+03
  19.810  0.0000E+00  0.1200E+03
  19.820  0.0000E+00  0.1200E+03
  19.830  0.0000E+00  0.1200E+03
  19.840  0.0000E+00  0.1200E+03
  19.850  0.0000E+00  0.1200E+03
  19.860  0.0000E+00  0.1200E+03
  19.870  0.0000E+00  0.1200E+03
  19.880  0.0000E+00  0.1200E+03
  19.890  0.0000E+00  0.1200E+03
  19.900  0.0000E+00  0.1200E+03
  19.910  0.0000E+00  0.1200E+03
  19.920  0.0000E+00  0.1200E+03
  19.930  0.0000E+00  0.1200E+03
  19.940  0.0000E+00  0.1200E+03
  19.950  0.0000E+00  0.1200E+03
  19.960  0.0000E+00  0.1200E+03
  19.970  0.0000E+00  0.1200E+03
  19.980  0.0000E+00  0.1200E+03
  19.990  0.0000E+00  0.1200E+03
  20.000  0.0000E+00  0.1200E+03
  20.010  0.0000E+00  0.1200E+03
  20.020  0.0000E+00  0.1200E+03
  20.030  0.0000E+00  0.1200E+03
  20.040  0.0000E+00  0.1200E+03
  20.050  0.0000E+00  0.1200E+03
  20.060  0.0000E+00  0.1200E+03
  20.070  0.0000E+00  0.1200E+03
  20.080  0.0000E+00  0.1200E+03
  20.090  0.0000E+00  0.1200E+03
  20.100  0.0000E+00  0.1200E+03
  20.110  0.0000E+00  0.1200E+03
  20.120  0.0000E+00  0.1200E+03
  20.130  0.0000E+00  0.1200E+03
  20.140  0.0000E+00  0.1200E+03
  20.150  0.0000E+00  0.1200E+03
  20.160  0.0000E+00  0.1200E+03
  20.170  0.0000E+00  0.1200E+03
  20.180  0.0000E+00  0.1200E+03
  20.190  0.0000E+00  0.1200E+03
  20.200  0.0000E+00  0.1200E+03
  20.210  0.0000E+00  0.1200E+03
  20.220  0.0000E+00  0.1200E+03
  20.230  0.0000E+00  0.1200E+03
  20.240  0.0000E+00  0.1200E+03
  20.250  0.0000E+00  0.1200E+03
  20.260  0.0000E+00  0.1200E+03
  20.270  0.0000E+00  0.1200E+03
  20.280  0.0000E+00  0.1200E+03
  20.290  0.0000E+00  0.1200E+03
  20.300  0.0000E+00  0.1200E+03
  20.310  0.0000E+00  0.1200E+03
  20.320  0.0000E+00  0.1200E+03
  20.330  0.0000E+00  0.1200E+03
  20.340  0.0000E+00  0.1200E+03
  20.350  0.0000E+00  0.1200E+03
  20.360  0.0000E+00  0.1200E+03
  20.370  0.0000E+00  0.1200E+03
  20.380  0.0000E+00  0.1200E+03
  20.390  0.0000E+00  0.1200E+03
  20.400  0.0000E+00  0.1200E+03
  20.410  0.0000E+00  0.1200E+03
  20.420  0.0000E+00  0.1200E+03
  20.430  0.0000E+00  0.1200E+03
  20.440  0.0000E+00  0.1200E+03
  20.450  0.0000E+00  0.1200E+03
  20.460  0.0000E+00  0.1200E+03
  20.470  0.0000E+00  0.1200E+03
  20.480  0.0000E+00  0.1200E+03
  20.490  0.0000E+00  0.1200E+03
  20.500  0.0000E+00  0.1200E+03
  20.510  0.0000E+00  0.1200E+03
  20.520  0.0000E+00  0.1200E+03
  20.530  0.0000E+00  0.1200E+03
  20.540  0.0000E+00  0.1200E+03
  20.550  0.0000E+00  0.1200E+03
  20.560  0.0000E+00  0.1200E+03
  20.570  0.0000E+00  0.1200E+03
  20.580  0.0000E+00  0.1200E+03
  20.590  0.0000E+00  0.1200E+03
  20.600  0.0000E+00  0.1200E+03
  20.610  0.0000E+00  0.1200E+03
  20.620  0.0000E+00  0.1200E+03
  20.630  0.0000E+00  0.1200E+03
  20.640  0.0000E+00  0.1200E+03
  20.650  0.0000E+00  0.1200E+03
  20.660  0.0000E+00  0.1200E+03
  20.670  0.0000E+00  0.1200E+03
  20.680  0.0000E+00  0.1200E+03
  20.690  0.0000E+00  0.1200E+03
  20.700  0.0000E+00  0.1200E+03
  20.710  0.0000E+00  0.1200E+03
  20.720  0.0000E+00  0.1200E+03
  20.730  0.0000E+00  0.1200E+03
  20.740  0.0000E+00  0.1200E+03
  20.750  0.0000E+00  0.1200E+03
  20.760  0.0000E+00  0.1200E+03
  20.770  0.0000E+00  0.1200E+03
  20.780  0.0000E+00  0.1200E+03
  20.790  0.0000E+00  0.1200E+03
  20.800  0.0000E+00  0.1200E+03
  20.810  0.0000E+00  0.1200E+03
  20.820  0.0000E+00  0.1200E+03
  20.830  0.0000E+00  0.1200E+03
  20.840  0.0000E+00  0.1200E+03
  20.850  0.0000E+00  0.1200E+03
  20.860  0.0000E+00  0.1200E+03
  20.870  0.0000E+00  0.1200E+03
  20.880  0.0000E+00  0.1200E+03
  20.890  0.0000E+00  0.1200E+03
  20.900  0.0000E+00  0.1200E+03
  20.910  0.0000E+00  0.1200E+03
  20.920  0.0000E+00  0.1200E+03
  20.930  0.0000E+00  0.1200E+03
  20.940  0.0000E+00  0.1200E+03
  20.950  0.0000E+00  0.1200E+03
  20.960  0.0000E+00  0.1200E+03
  20.970  0.0000E+00  0.1200E+03
  20.980  0.0000E+00  0.1200E+03
  20.990  0.0000E+00  0.1200E+03
  21.000  0.0000E+00  0.1200E+03
  21.010  0.0000E+00  0.1200E+03
  21.020  0.0000E+00  0.1200E+03
  21.030  0.0000E+00  0.1200E+03
  21.040  0.0000E+00  0.1200E+03
  21.050  0.0000E+00  0.1200E+03
  21.060  0.0000E+00  0.1200E+03
  21.070  0.0000E+00  0.1200E+03
  21.080  0.0000E+00  0.1200E+03
  21.090  0.0000E+00  0.1200E+03
  21.100  0.0000E+00  0.1200E+03
  21.110  0.0000E+00  0.1200E+03
  21.120  0.0000E+00  0.1200E+03
  21.130  0.0000E+00  0.1200E+03
  21.140  0.0000E+00  0.1200E+03
  21.150  0.0000E+00  0.1200E+03
  21.160  0.0000E+00  0.1200E+03
  21.170  0.0000E+00  0.1200E+03
  21.180  0.0000E+00  0.1200E+03
  21.190  0.0000E+00  0.1200E+03
  21.200  0.0000E+00  0.1200E+03
  21.210  0.0000E+00  0.1200E+03
  21.220  0.0000E+00  0.1200E+03
  21.230  0.0000E+00  0.1200E+03
  21.240  0.0000E+00  0.1200E+03
  21.250  0.0000E+00  0.1200E+03
  21.260  0.0000E+00  0.1200E+03
  21.270  0.0000E+00  0.1200E+03
  21.280  0.0000E+00  0.1200E+03
  21.290  0.0000E+00  0.1200E+03
  21.300  0.0000E+00  0.1200E+03
  21.310  0.0000E+00  0.1200E+03
  21.320  0.0000E+00  0.1200E+03
  21.330  0.0000E+00  0.1200E+03
  21.340  0.0000E+00  0.1200E+03
  21.350  0.0000E+00  0.1200E+03
  21.360  0.0000E+00  0.1200E+03
  21.370  0.0000E+00  0.1200E+03
  21.380  0.0000E+00  0.1200E+03
  21.390  0.0000E+00  0.1200E+03
  21.400  0.0000E+00  0.1200E+03
  21.410  0.0000E+00  0.1200E+03
  21.420  0.0000E+00  0.1200E+03
  21.430  0.0000E+00  0.1200E+03
  21.440  0.0000E+00  0.1200E+03
  21.450  0.0000E+00  0.1200E+03
  21.460  0.0000E+00  0.1200E+03
  21.470  0.0000E+00  0.1200E+03
  21.480  0.0000E+00  0.1200E+03
  21.490  0.0000E+00  0.1200E+03
  21.500  0.0000E+00  0.1200E+03
  21.510  0.0000E+00  0.1200E+03
  21.520  0.0000E+00  0.1200E+03
  21.530  0.0000E+00  0.1200E+03
  21.540  0.0000E+00  0.1200E+03
  21.550  0.0000E+00  0.1200E+03
  21.560  0.0000E+00  0.1200E+03
  21.570  0.0000E+00  0.1200E+03
  21.580  0.0000E+00  0.1200E+03
  21.590  0.0000E+00  0.1200E+03
  21.600  0.0000E+00  0.1200E+03
  21.610  0.0000E+00  0.1200E+03
  21.620  0.0000E+00  0.1200E+03
  21.630  0.0000E+00  0.1200E+03
  21.640  0.0000E+00  0.1200E+03
  21.650  0.0000E+00  0.1200E+03
  21.660  0.0000E+00  0.1200E+03
  21.670  0.0000E+00  0.1200E+03
  21.680  0.0000E+00  0.1200E+03
  21.690  0.0000E+00  0.1200E+03
  21.700  0.0000E+00  0.1200E+03
  21.710  0.0000E+00  0.1200E+03
  21.720  0.0000E+00  0.1200E+03
  21.730  0.0000E+00  0.1200E+03
  21.740  0.0000E+00  0.1200E+03
  21.750  0.0000E+00  0.1200E+03
  21.760  0.0000E+00  0.1200E+03
  21.770  0.0000E+00  0.1200E+03
  21.780  0.0000E+00  0.1200E+03
  21.790  0.0000E+00  0.1200E+03
  21.800  0.0000E+00  0.1200E+03
  21.810  0.0000E+00  0.1200E+03
  21.820  0.0000E+00  0.1200E+03
  21.830  0.0000E+00  0.1200E+03
  21.840  0.0000E+00  0.1200E+03
  21.850  0.0000E+00  0.1200E+03
  21.860  0.0000E+00  0.1200E+03
  21.870  0.0000E+00  0.1200E+03
  21.880  0.0000E+00  0.1200E+03
  21.890  0.0000E+00  0.1200E+03
  21.900  0.0000E+00  0.1200E+03
  21.910  0.0000E+00  0.1200E+03
  21.920  0.0000E+00  0.1200E+03
  21.930  0.0000E+00  0.1200E+03
  21.940  0.0000E+00  0.1200E+03
  21.950  0.0000E+00  0.1200E+03
  21.960  0.0000E+00  0.1200E+03
  21.970  0.0000E+00  0.1200E+03
  21.980  0.0000E+00  0.1200E+03
  21.990  0.0000E+00  0.1200E+03
  22.000  0.0000E+00  0.1200E+03
  22.010  0.0000E+00  0.1200E+03
  22.020  0.0000E+00  0.1200E+03
  22.030  0.0000E+00  0.1200E+03
  22.040  0.0000E+00  0.1200E+03
  22.050  0.0000E+00  0.1200E+03
  22.060  0.0000E+00  0.1200E+03
  22.070  0.0000E+00  0.1200E+03
  22.080  0.0000E+00  0.1200E+03
  22.090  0.0000E+00  0.1200E+03
  22.100  0.0000E+00  0.1200E+03
  22.110  0.0000E+00  0.1200E+03
  22.120  0.0000E+00  0.1200E+03
  22.130  0.0000E+00  0.1200E+03
  22.140  0.0000E+00  0.1200E+03
  22.150  0.0000E+00  0.1200E+03
  22.160  0.0000E+00  0.1200E+03
  22.170  0.0000E+00  0.1200E+03
  22.180  0.0000E+00  0.1200E+03
  22.190  0.0000E+00  0.1200E+03
  22.200  0.0000E+00  0.1200E+03
  22.210  0.0000E+00  0.1200E+03
  22.220  0.0000E+00  0.1200E+03
  22.230  0.0000E+00  0.1200E+03
  22.240  0.0000E+00  0.1200E+03
  22.250  0.0000E+00  0.1200E+03
  22.260  0.0000E+00  0.1200E+03
  22.270  0.0000E+00  0.1200E+03
  22.280  0.0000E+00  0.1200E+03
  22.290  0.0000E+00  0.1200E+03
  22.300  0.0000E+00  0.1200E+03
  22.310  0.0000E+00  0.1200E+03
  22.320  0.0000E+00  0.1200E+03
  22.330  0.0000E+00  0.1200E+03
  22.340  0.0000E+00  0.1200E+03
  22.350  0.0000E+00  0.1200E+03
  22.360  0.0000E+00  0.1200E+03
  22.370  0.0000E+00  0.1200E+03
  22.380  0.0000E+00  0.1200E+03
  22.390  0.0000E+00  0.1200E+03
  22.400  0.0000E+00  0.1200E+03
  22.410  0.0000E+00  0.1200E+03
  22.420  0.0000E+00  0.1200E+03
  22.430  0.0000E+00  0.1200E+03
  22.440  0.0000E+00  0.1200E+03
  22.450  0.0000E+00  0.1200E+03
  22.460  0.0000E+00  0.1200E+03
  22.470  0.0000E+00  0.1200E+03
  22.480  0.0000E+00  0.1200E+03
  22.490  0.0000E+00  0.1200E+03
  22.500  0.0000E+00  0.1200E+03
  22.510  0.0000E+00  0.1200E+03
  22.520  0.0000E+00  0.1200E+03
  22.530  0.0000E+00  0.1200E+03
  22.540  0.0000E+00  0.1200E+03
  22.550  0.0000E+00  0.1200E+03
  22.560  0.0000E+00  0.1200E+03
  22.570  0.0000E+00  0.1200E+03
  22.580  0.0000E+00  0.1200E+03
  22.590  0.0000E+00  0.1200E+03
  22.600  0.0000E+00  0.1200E+03
  22.610  0.0000E+00  0.1200E+03
  22.620  0.0000E+00  0.1200E+03
  22.630  0.0000E+00  0.1200E+03
  22.640  0.0000E+00  0.1200E+03
  22.650  0.0000E+00  0.1200E+03
  22.660  0.0000E+00  0.1200E+03
  22.670  0.0000E+00  0.1200E+03
  22.680  0.0000E+00  0.1200E+03
  22.690  0.0000E+00  0.1200E+03
  22.700  0.0000E+00  0.1200E+03
  22.710  0.0000E+00  0.1200E+03
  22.720  0.0000E+00  0.1200E+03
  22.730  0.0000E+00  0.1200E+03
  22.740  0.0000E+00  0.1200E+03
  22.750  0.0000E+00  0.1200E+03
  22.760  0.0000E+00  0.1200E+03
  22.770  0.0000E+00  0.1200E+03
  22.780  0.0000E+00  0.1200E+03
  22.790  0.0000E+00  0.1200E+03
  22.800  0.0000E+00  0.1200E+03
  22.810  0.0000E+00  0.1200E+03
  22.820  0.0000E+00  0.1200E+03
  22.830  0.0000E+00  0.1200E+03
  22.840  0.0000E+00  0.1200E+03
  22.850  0.0000E+00  0.1200E+03
  22.860  0.0000E+00  0.1200E+03
  22.870  0.0000E+00  0.1200E+03
  22.880  0.0000E+00  0.1200E+03
  22.890  0.0000E+00  0.1200E+03
  22.900  0.0000E+00  0.1200E+03
  22.910  0.0000E+00  0.1200E+03
  22.920  0.0000E+00  0.1200E+03
  22.930  0.0000E+00  0.1200E+03
  22.940  0.0000E+00  0.1200E+03
  22.950  0.0000E+00  0.1200E+03
  22.960  0.0000E+00  0.1200E+03
  22.970  0.0000E+00  0.1200E+03
  22.980  0.0000E+00  0.1200E+03
  22.990  0.0000E+00  0.1200E+03
  23.000  0.0000E+00  0.1200E+03
  23.010  0.0000E+00  0.1200E+03
  23.020  0.0000E+00  0.1200E+03
  23.030  0.0000E+00  0.1200E+03
  23.040  0.0000E+00  0.1200E+03
  23.050  0.0000E+00  0.1200E+03
  23.060  0.0000E+00  0.1200E+03
  23.070  0.0000E+00  0.1200E+03
  23.080  0.0000E+00  0.1200E+03
  23.090  0.0000E+00  0.1200E+03
  23.100  0.0000E+00  0.1200E+03
  23.110  0.0000E+00  0.1200E+03
  23.120  0.0000E+00  0.1200E+03
  23.130  0.0000E+00  0.1200E+03
  23.140  0.0000E+00  0.1200E+03
  23.150  0.0000E+00  0.1200E+03
  23.160  0.0000E+00  0.1200E+03
  23.170  0.0000E+00  0.1200E+03
  23.180  0.0000E+00  0.1200E+03
  23.190  0.0000E+00  0.1200E+03
  23.200  0.0000E+00  0.1200E+03
  23.210  0.0000E+00  0.1200E+03
  23.220  0.0000E+00  0.1200E+03
  23.230  0.0000E+00  0.1200E+03
  23.240  0.0000E+00  0.1200E+03
  23.250  0.0000E+00  0.1200E+03
  23.260  0.0000E+00  0.1200E+03
  23.270  0.0000E+00  0.1200E+03
  23.280  0.0000E+00  0.1200E+03
  23.290  0.0000E+00  0.1200E+03
  23.300  0.0000E+00  0.1200E+03
  23.310  0.0000E+00  0.1200E+03
  23.320  0.0000E+00  0.1200E+03
  23.330  0.0000E+00  0.1200E+03
  23.340  0.0000E+00  0.1200E+03
  23.350  0.0000E+00  0.1200E+03
  23.360  0.0000E+00  0.1200E+03
  23.370  0.0000E+00  0.1200E+03
  23.380  0.0000E+00  0.1200E+03
  23.390  0.0000E+00  0.1200E+03
  23.400  0.0000E+00  0.1200E+03
  23.410  0.0000E+00  0.1200E+03
  23.420  0.0000E+00  0.1200E+03
  23.430  0.0000E+00  0.1200E+03
  23.440  0.0000E+00  0.1200E+03
  23.450  0.0000E+00  0.1200E+03
  23.460  0.0000E+00  0.1200E+03
  23.470  0.0000E+00  0.1200E+03
  23.480  0.0000E+00  0.1200E+03
  23.490  0.0000E+00  0.1200E+03
  23.500  0.0000E+00  0.1200E+03
  23.510  0.0000E+00  0.1200E+03
  23.520  0.0000E+00  0.1200E+03
  23.530  0.0000E+00  0.1200E+03
  23.540  0.0000E+00  0.1200E+03
  23.550  0.0000E+00  0.1200E+03
  23.560  0.0000E+00  0.1200E+03
  23.570  0.0000E+00  0.1200E+03
  23.580  0.0000E+00  0.1200E+03
  23.590  0.0000E+00  0.1200E+03
  23.600  0.0000E+00  0.1200E+03
  23.610  0.0000E+00  0.1200E+03
  23.620  0.0000E+00  0.1200E+03
  23.630  0.0000E+00  0.1200E+03
  23.640  0.0000E+00  0.1200E+03
  23.650  0.0000E+00  0.1200E+03
  23.660  0.0000E+00  0.1200E+03
  23.670  0.0000E+00  0.1200E+03
  23.680  0.0000E+00  0.1200E+03
  23.690  0.0000E+00  0.1200E+03
  23.700  0.0000E+00  0.1200E+03
  23.710  0.0000E+00  0.1200E+03
  23.720  0.0000E+00  0.1200E+03
  23.730  0.0000E+00  0.1200E+03
  23.740  0.0000E+00  0.1200E+03
  23.750  0.0000E+00  0.1200E+03
  23.760  0.0000E+00  0.1200E+03
  23.770  0.0000E+00  0.1200E+03
  23.780  0.0000E+00  0.1200E+03
  23.790  0.0000E+00  0.1200E+03
  23.800  0.0000E+00  0.1200E+03
  23.810  0.0000E+00  0.1200E+03
  23.820  0.0000E+00  0.1200E+03
  23.830  0.0000E+00  0.1200E+03
  23.840  0.0000E+00  0.1200E+03
  23.850  0.0000E+00  0.1200E+03
  23.860  0.0000E+00  0.1200E+03
  23.870  0.0000E+00  0.1200E+03
  23.880  0.0000E+00  0.1200E+03
  23.890  0.0000E+00  0.1200E+03
  23.900  0.0000E+00  0.1200E+03
  23.910  0.0000E+00  0.1200E+03
  23.920  0.0000E+00  0.1200E+03
  23.930  0.0000E+00  0.1200E+03
  23.940  0.0000E+00  0.1200E+03
  23.950  0.0000E+00  0.1200E+03
  23.960  0.0000E+00  0.1200E+03
  23.970  0.0000E+00  0.1200E+03
  23.980  0.0000E+00  0.1200E+03
  23.990  0.0000E+00  0.1200E+03
  24.000  0.0000E+00  0.1200E+03
  24.010  0.0000E+00  0.1200E+03
  24.020  0.0000E+00  0.1200E+03
  24.030  0.0000E+00  0.1200E+03
  24.040  0.0000E+00  0.1200E+03
  24.050  0.0000E+00  0.1200E+03
  24.060  0.0000E+00  0.1200E+03
  24.070  0.0000E+00  0.1200E+03
  24.080  0.0000E+00  0.1200E+03
  24.090  0.0000E+00  0.1200E+03
  24.100  0.0000E+00  0.1200E+03
  24.110  0.0000E+00  0.1200E+03
  24.120  0.0000E+00  0.1200E+03
  24.130  0.0000E+00  0.1200E+03
  24.140  0.0000E+00  0.1200E+03
  24.150  0.0000E+00  0.1200E+03
  24.160  0.0000E+00  0.1200E+03
  24.170  0.0000E+00  0.1200E+03
  24.180  0.0000E+00  0.1200E+03
  24.190  0.0000E+00  0.1200E+03
  24.200  0.0000E+00  0.1200E+03
  24.210  0.0000E+00  0.1200E+03
  24.220  0.0000E+00  0.1200E+03
  24.230  0.0000E+00  0.1200E+03
  24.240  0.0000E+00  0.1200E+03
  24.250  0.0000E+00  0.1200E+03
  24.260  0.0000E+00  0.1200E+03
  24.270  0.0000E+00  0.1200E+03
  24.280  0.0000E+00  0.1200E+03
  24.290  0.0000E+00  0.1200E+03
  24.300  0.0000E+00  0.1200E+03
  24.310  0.0000E+00  0.1200E+03
  24.320  0.0000E+00  0.1200E+03
  24.330  0.0000E+00  0.1200E+03
  24.340  0.0000E+00  0.1200E+03
  24.350  0.0000E+00  0.1200E+03
  24.360  0.0000E+00  0.1200E+03
  24.370  0.0000E+00  0.1200E+03
  24.380  0.0000E+00  0.1200E+03
  24.390  0.0000E+00  0.1200E+03
  24.400  0.0000E+00  0.1200E+03
  24.410  0.0000E+00  0.1200E+03
  24.420  0.0000E+00  0.1200E+03
  24.430  0.0000E+00  0.1200E+03
  24.440  0.0000E+00  0.1200E+03
  24.450  0.0000E+00  0.1200E+03
  24.460  0.0000E+00  0.1200E+03
  24.470  0.0000E+00  0.1200E+03
  24.480  0.0000E+00  0.1200E+03
  24.490  0.0000E+00  0.1200E+03
  24.500  0.0000E+00  0.1200E+03
  24.510  0.0000E+00  0.1200E+03
  24.520  0.0000E+00  0.1200E+03
  24.530  0.0000E+00  0.1200E+03
  24.540  0.0000E+00  0.1200E+03
  24.550  0.0000E+00  0.1200E+03
  24.560  0.0000E+00  0.1200E+03
  24.570  0.0000E+00  0.1200E+03
  24.580  0.0000E+00  0.1200E+03
  24.590  0.0000E+00  0.1200E+03
  24.600  0.0000E+00  0.1200E+03
  24.610  0.0000E+00  0.1200E+03
  24.620  0.0000E+00  0.1200E+03
  24.630  0.0000E+00  0.1200E+03
  24.640  0.0000E+00  0.1200E+03
  24.650  0.0000E+00  0.1200E+03
  24.660  0.0000E+00  0.1200E+03
  24.670  0.0000E+00  0.1200E+03
  24.680  0.0000E+00  0.1200E+03
  24.690  0.0000E+00  0.1200E+03
  24.700  0.0000E+00  0.1200E+03
  24.710  0.0000E+00  0.1200E+03
  24.720  0.0000E+00  0.1200E+03
  24.730  0.0000E+00  0.1200E+03
  24.740  0.0000E+00  0.1200E+03
  24.750  0.0000E+00  0.1200E+03
  24.760  0.0000E+00  0.1200E+03
  24.770  0.0000E+00  0.1200E+03
  24.780  0.0000E+00  0.1200E+03
  24.790  0.0000E+00  0.1200E+03
  24.800  0.0000E+00  0.1200E+03
  24.810  0.0000E+00  0.1200E+03
  24.820  0.0000E+00  0.1200E+03
  24.830  0.0000E+00  0.1200E+03
  24.840  0.0000E+00  0.1200E+03
  24.850  0.0000E+00  0.1200E+03
  24.860  0.0000E+00  0.1200E+03
  24.870  0.0000E+00  0.1200E+03
  24.880  0.0000E+00  0.1200E+03
  24.890  0.0000E+00  0.1200E+03
  24.900  0.0000E+00  0.1200E+03
  24.910  0.0000E+00  0.1200E+03
  24.920  0.0000E+00  0.1200E+03
  24.930  0.0000E+00  0.1200E+03
  24.940  0.0000E+00  0.1200E+03
  24.950  0.0000E+00  0.1200E+03
  24.960  0.0000E+00  0.1200E+03
  24.970  0.0000E+00  0.1200E+03
  24.980  0.0000E+00  0.1200E+03
  24.990  0.0000E+00  0.1200E+03
  25.000  0.0000E+00  0.1200E+03
